Trace,
Swept SA,
A.12.13,N9010A
513 B25 DP2 RTL ,01
Segment,0
Number of Points,1001
Sweep Time,0.11
Start Frequency,9740000
Stop Frequency,11740000
Average Count,0
Average Type,LogPower(Video)
RBW,9100
RBW Filter,Gaussian
RBW Filter BW,3dB
VBW,9100
Sweep Type,Swept
X Axis Scale,Lin
PreAmp State,Off
PreAmp Band,Low
Trigger Source,Ext1
Trigger Level,1
Trigger Slope,Positive
Trigger Delay,0
Phase Noise Optimization,Narrow
Swept If Gain,Low
FFT If Gain,Autorange
RF Coupling,AC
FFT Width,411900
Ext Ref,10000000
Input,RF
RF Calibrator,Off
Attenuation,10
Ref Level Offset,0
External Gain,0
Trace Type,Average
Detector,Sample
Trace Math,Off
Trace Math Oper1,Trace5
Trace Math Oper2,Trace6
Trace Math Offset,0
Trace Name,Trace1
X Axis Units,Hz
Y Axis Units,dBm
DATA
9740000,-56.05500851
9742000,-55.56372723
9744000,-57.56631896
9746000,-58.14265467
9748000,-61.11791808
9750000,-64.87960333
9752000,-61.61347929
9754000,-59.65597053
9756000,-59.08044497
9758000,-59.66510063
9760000,-62.05732869
9762000,-66.27127871
9764000,-67.45360358
9766000,-67.94388887
9768000,-65.36286434
9770000,-65.42176996
9772000,-66.07806491
9774000,-66.32457201
9776000,-63.0175825
9778000,-59.19310395
9780000,-57.80887634
9782000,-56.89229029
9784000,-56.98960683
9786000,-58.31445034
9788000,-58.59815399
9790000,-59.47894336
9792000,-61.53008895
9794000,-63.9795935
9796000,-65.71994227
9798000,-63.09065743
9800000,-59.26003533
9802000,-58.71196817
9804000,-58.9874437
9806000,-60.29967155
9808000,-63.31089267
9810000,-63.71507649
9812000,-63.6213871
9814000,-60.2600197
9816000,-56.22846281
9818000,-55.40663439
9820000,-54.2125794
9822000,-54.81495384
9824000,-55.91225179
9826000,-56.39842198
9828000,-56.68113336
9830000,-58.78065073
9832000,-61.41455388
9834000,-63.24398653
9836000,-60.26005485
9838000,-56.94773657
9840000,-56.21864338
9842000,-56.1630905
9844000,-57.81961613
9846000,-58.5962733
9848000,-63.79897488
9850000,-62.54726381
9852000,-59.86447848
9854000,-59.91760447
9856000,-60.47388958
9858000,-61.73413613
9860000,-63.19675667
9862000,-62.70388603
9864000,-60.17968896
9866000,-58.73718959
9868000,-57.00383821
9870000,-55.6940097
9872000,-55.29639661
9874000,-55.59631785
9876000,-56.8342898
9878000,-58.19042809
9880000,-59.79728458
9882000,-61.25932851
9884000,-60.30836345
9886000,-57.23391306
9888000,-54.1059682
9890000,-53.02377269
9892000,-54.47159107
9894000,-57.63862505
9896000,-61.20816081
9898000,-57.70375527
9900000,-54.60072878
9902000,-54.03157843
9904000,-53.35201186
9906000,-54.20517719
9908000,-55.22802304
9910000,-57.13626102
9912000,-56.0653609
9914000,-52.21493153
9916000,-49.37346203
9918000,-48.5146176
9920000,-49.31599743
9922000,-51.5123071
9924000,-56.88398412
9926000,-59.92447782
9928000,-56.9265537
9930000,-53.78088972
9932000,-51.99971628
9934000,-50.47255401
9936000,-49.71414899
9938000,-50.44926876
9940000,-51.69031915
9942000,-53.71422656
9944000,-54.18153954
9946000,-51.70021651
9948000,-48.74949548
9950000,-46.53011459
9952000,-45.49678405
9954000,-46.34579083
9956000,-49.57246405
9958000,-49.2225659
9960000,-44.22236433
9962000,-42.44227238
9964000,-42.99990972
9966000,-42.23001339
9968000,-35.91177424
9970000,-31.81323464
9972000,-28.90630955
9974000,-26.95645615
9976000,-24.59404376
9978000,-22.64841444
9980000,-21.19636793
9982000,-20.47257771
9984000,-20.49479215
9986000,-20.90849436
9988000,-20.02430399
9990000,-19.33464775
9992000,-19.74131655
9994000,-20.9205873
9996000,-23.36699936
9998000,-26.80901449
10000000,-27.55547962
10002000,-23.39241455
10004000,-19.90052455
10006000,-17.47511758
10008000,-15.99330864
10010000,-15.31777525
10012000,-15.65678664
10014000,-16.48937258
10016000,-16.11074059
10018000,-15.66521431
10020000,-16.20999236
10022000,-17.50597803
10024000,-19.6216783
10026000,-22.64085275
10028000,-26.3310836
10030000,-29.76369897
10032000,-34.23130738
10034000,-38.72723252
10036000,-36.31268984
10038000,-36.35510338
10040000,-38.15806018
10042000,-42.63734376
10044000,-50.04953877
10046000,-45.43733713
10048000,-44.64192445
10050000,-45.69247874
10052000,-48.9644614
10054000,-52.94737892
10056000,-57.79320392
10058000,-60.08704434
10060000,-62.06799509
10062000,-61.45352816
10064000,-58.29791527
10066000,-58.35713062
10068000,-57.76377399
10070000,-57.89389195
10072000,-60.32829673
10074000,-57.06727752
10076000,-51.24726355
10078000,-48.2666826
10080000,-46.32635936
10082000,-45.90576726
10084000,-47.27479567
10086000,-49.30663131
10088000,-49.23333099
10090000,-47.71006207
10092000,-47.37488274
10094000,-48.52813775
10096000,-49.54879684
10098000,-51.20625068
10100000,-52.20171255
10102000,-53.30548677
10104000,-52.02848225
10106000,-50.55317729
10108000,-49.81652734
10110000,-50.02493324
10112000,-52.02147231
10114000,-56.29820536
10116000,-58.65418243
10118000,-54.5759633
10120000,-53.00129243
10122000,-51.95918239
10124000,-51.76638068
10126000,-51.91818587
10128000,-52.61273296
10130000,-54.3802747
10132000,-57.30039159
10134000,-59.79882058
10136000,-58.23988813
10138000,-56.7996616
10140000,-55.80859509
10142000,-54.82231803
10144000,-54.22363354
10146000,-54.47781294
10148000,-55.2296796
10150000,-56.44168476
10152000,-56.49203645
10154000,-55.13819968
10156000,-53.78518446
10158000,-53.31867252
10160000,-53.04529113
10162000,-54.77443688
10164000,-55.91353275
10166000,-56.78168387
10168000,-56.95721526
10170000,-58.77612923
10172000,-60.56592943
10174000,-58.42552135
10176000,-57.09398545
10178000,-57.23282672
10180000,-57.84342514
10182000,-57.21140285
10184000,-59.50456903
10186000,-56.7988687
10188000,-54.6990381
10190000,-52.76453011
10192000,-52.99242033
10194000,-53.92517861
10196000,-56.00800968
10198000,-58.60401051
10200000,-62.81172365
10202000,-67.24822436
10204000,-62.93410589
10206000,-60.72344532
10208000,-59.81332588
10210000,-60.32178227
10212000,-59.93816132
10214000,-62.93503229
10216000,-61.99611613
10218000,-62.90918917
10220000,-63.86016847
10222000,-65.50392892
10224000,-62.91536602
10226000,-60.48121827
10228000,-59.77396161
10230000,-61.26818472
10232000,-65.07431955
10234000,-64.91786129
10236000,-61.61273974
10238000,-59.25652383
10240000,-59.19103163
10242000,-59.10263754
10244000,-59.72896017
10246000,-60.95549132
10248000,-63.47427633
10250000,-66.71325122
10252000,-62.84063723
10254000,-61.15720018
10256000,-58.77709942
10258000,-60.00791848
10260000,-60.60935157
10262000,-61.68191466
10264000,-65.14492781
10266000,-63.29239537
10268000,-62.382758
10270000,-61.66183591
10272000,-61.31867605
10274000,-61.29083934
10276000,-61.34162176
10278000,-60.80135113
10280000,-60.83297115
10282000,-60.27874252
10284000,-61.12064346
10286000,-60.09666254
10288000,-57.16267312
10290000,-57.29034042
10292000,-57.37099998
10294000,-59.30319331
10296000,-61.58256322
10298000,-59.17670355
10300000,-59.02032426
10302000,-58.64134312
10304000,-59.36494719
10306000,-59.11201847
10308000,-60.88103344
10310000,-62.9676024
10312000,-66.18632114
10314000,-66.75439061
10316000,-62.85879428
10318000,-60.07841119
10320000,-60.10417581
10322000,-61.10249513
10324000,-59.83130462
10326000,-59.95281703
10328000,-60.90167446
10330000,-62.38516086
10332000,-66.12406839
10334000,-69.74429487
10336000,-70.87112677
10338000,-69.09906369
10340000,-67.43427588
10342000,-66.98624443
10344000,-65.43232437
10346000,-65.20387643
10348000,-66.65809282
10350000,-66.55859019
10352000,-69.06379899
10354000,-70.21699283
10356000,-67.79427657
10358000,-69.17298279
10360000,-69.911586
10362000,-68.52891226
10364000,-67.71641104
10366000,-67.0694573
10368000,-66.43350704
10370000,-64.48705401
10372000,-66.07884014
10374000,-64.85010173
10376000,-67.05314601
10378000,-66.97472105
10380000,-65.90891002
10382000,-65.6319513
10384000,-64.4955924
10386000,-62.37994535
10388000,-59.22872102
10390000,-58.49019862
10392000,-58.64781461
10394000,-58.48897159
10396000,-59.94767694
10398000,-61.79443791
10400000,-63.9323354
10402000,-67.4819075
10404000,-68.93784529
10406000,-67.24135442
10408000,-66.14821507
10410000,-66.52791564
10412000,-66.26111521
10414000,-67.99849257
10416000,-67.36217707
10418000,-68.89380909
10420000,-69.68677454
10422000,-68.66374449
10424000,-70.23475757
10426000,-68.78562634
10428000,-67.4448765
10430000,-69.49040464
10432000,-71.42061352
10434000,-70.9730176
10436000,-69.67056546
10438000,-70.97831663
10440000,-69.65297807
10442000,-68.73508925
10444000,-70.82142327
10446000,-70.56183965
10448000,-69.32045763
10450000,-68.40231448
10452000,-67.10530675
10454000,-66.49605779
10456000,-64.97269946
10458000,-65.18576048
10460000,-68.264627
10462000,-70.67636853
10464000,-70.30745233
10466000,-67.44196145
10468000,-63.36637809
10470000,-60.91264936
10472000,-59.58440767
10474000,-60.10580387
10476000,-59.85304222
10478000,-60.89386593
10480000,-60.46725568
10482000,-60.05786033
10484000,-60.7541926
10486000,-61.46525777
10488000,-59.30573963
10490000,-58.84748399
10492000,-59.77649952
10494000,-59.86256494
10496000,-62.23950412
10498000,-63.34777416
10500000,-65.20213171
10502000,-65.05938772
10504000,-68.1536607
10506000,-68.52972336
10508000,-67.86652059
10510000,-69.08395677
10512000,-69.12749769
10514000,-69.93461816
10516000,-72.12404965
10518000,-69.02127061
10520000,-71.17048013
10522000,-70.95794927
10524000,-71.13639119
10526000,-70.15383928
10528000,-68.86963797
10530000,-69.09169712
10532000,-70.26027531
10534000,-70.61125844
10536000,-69.87289527
10538000,-71.10107011
10540000,-69.23875837
10542000,-69.40991772
10544000,-65.85608779
10546000,-69.01936175
10548000,-67.83795103
10550000,-70.37528329
10552000,-72.27539538
10554000,-71.0920982
10556000,-69.18918146
10558000,-70.1398725
10560000,-72.00169709
10562000,-70.08785013
10564000,-72.77244993
10566000,-71.64314397
10568000,-71.0700153
10570000,-70.21213777
10572000,-71.26601394
10574000,-68.61694412
10576000,-69.37654682
10578000,-68.09612932
10580000,-66.02965001
10582000,-65.84841139
10584000,-66.33583421
10586000,-66.21006363
10588000,-64.16043294
10590000,-63.12055649
10592000,-62.27512151
10594000,-61.8976907
10596000,-62.36506166
10598000,-62.17082759
10600000,-64.08447027
10602000,-66.22245727
10604000,-69.22691074
10606000,-68.87880448
10608000,-67.28599855
10610000,-68.11431403
10612000,-67.4798692
10614000,-69.7134172
10616000,-69.90464308
10618000,-69.10013867
10620000,-70.33094518
10622000,-70.01540099
10624000,-69.06655477
10626000,-67.95597573
10628000,-68.27642656
10630000,-69.80890709
10632000,-72.51482005
10634000,-70.6399005
10636000,-69.29890242
10638000,-68.78210545
10640000,-68.02808493
10642000,-71.95918728
10644000,-67.72548443
10646000,-68.98235385
10648000,-68.66628822
10650000,-67.4120623
10652000,-63.85633016
10654000,-62.89346921
10656000,-61.96407314
10658000,-62.82594436
10660000,-64.44806191
10662000,-64.60309171
10664000,-67.879554
10666000,-69.59280232
10668000,-70.0085004
10670000,-64.04257937
10672000,-62.14402225
10674000,-60.60043353
10676000,-61.15208364
10678000,-60.9942251
10680000,-62.22398428
10682000,-63.48010405
10684000,-65.42276203
10686000,-68.06952723
10688000,-66.04763122
10690000,-63.21187005
10692000,-62.24176164
10694000,-61.71193865
10696000,-62.67542652
10698000,-62.75748855
10700000,-65.26776758
10702000,-66.28131984
10704000,-67.97148729
10706000,-71.44982517
10708000,-67.91134453
10710000,-66.48892776
10712000,-65.89585578
10714000,-66.43364054
10716000,-65.54385483
10718000,-65.38379589
10720000,-64.74640713
10722000,-65.92493707
10724000,-66.81846992
10726000,-68.21631329
10728000,-69.9555447
10730000,-71.03153102
10732000,-69.48782646
10734000,-69.00771758
10736000,-69.52137101
10738000,-68.70647123
10740000,-68.52522652
10742000,-69.77252253
10744000,-69.53805287
10746000,-69.98484511
10748000,-68.90549703
10750000,-69.99650713
10752000,-69.61715164
10754000,-67.94502053
10756000,-67.66644052
10758000,-66.91752543
10760000,-67.39909512
10762000,-69.79628557
10764000,-71.33396416
10766000,-72.0250016
10768000,-69.17990661
10770000,-67.84135916
10772000,-65.37464668
10774000,-65.10339552
10776000,-68.16847287
10778000,-68.81129003
10780000,-70.12639153
10782000,-69.46779787
10784000,-66.00245094
10786000,-64.8532689
10788000,-60.50977458
10790000,-60.45176765
10792000,-59.84733129
10794000,-59.86636471
10796000,-60.42918797
10798000,-63.02594739
10800000,-63.21953166
10802000,-65.7803309
10804000,-67.73156783
10806000,-68.52951636
10808000,-71.52114737
10810000,-71.45073149
10812000,-67.81562118
10814000,-63.6341847
10816000,-62.84206354
10818000,-61.65473117
10820000,-61.05216815
10822000,-62.78477101
10824000,-63.19104267
10826000,-66.26341717
10828000,-68.86647774
10830000,-71.79836088
10832000,-68.77429537
10834000,-67.38385418
10836000,-64.257016
10838000,-64.45815825
10840000,-63.71710061
10842000,-64.25231158
10844000,-67.18346776
10846000,-68.75533528
10848000,-69.75454364
10850000,-70.53173424
10852000,-67.57085362
10854000,-65.07979602
10856000,-63.99067297
10858000,-64.58674555
10860000,-65.55712129
10862000,-66.39104447
10864000,-68.19684276
10866000,-68.23370299
10868000,-68.10961202
10870000,-65.63969769
10872000,-64.5674168
10874000,-64.41651599
10876000,-65.77570814
10878000,-65.54947322
10880000,-67.46716412
10882000,-69.3854769
10884000,-68.87720657
10886000,-68.51159712
10888000,-64.69441451
10890000,-61.22548173
10892000,-61.0146374
10894000,-62.30497114
10896000,-62.33817305
10898000,-63.87114604
10900000,-64.60107385
10902000,-66.97558756
10904000,-68.72344333
10906000,-69.82126585
10908000,-68.67903791
10910000,-67.73668017
10912000,-64.89629931
10914000,-63.88628257
10916000,-61.60547664
10918000,-61.82324392
10920000,-61.86846266
10922000,-62.6528456
10924000,-64.50394837
10926000,-64.80358317
10928000,-67.22029684
10930000,-69.89293727
10932000,-68.50407095
10934000,-68.03892414
10936000,-66.77278339
10938000,-63.81444573
10940000,-67.76485592
10942000,-67.66217129
10944000,-70.83392346
10946000,-70.20683862
10948000,-70.39803787
10950000,-68.8337883
10952000,-66.3272647
10954000,-65.58581008
10956000,-67.40871308
10958000,-71.49082542
10960000,-71.01055788
10962000,-68.66502746
10964000,-67.16007954
10966000,-65.57562516
10968000,-64.64904716
10970000,-64.79049014
10972000,-64.54531971
10974000,-65.97092389
10976000,-67.23027332
10978000,-67.66614889
10980000,-70.33650012
10982000,-69.55182415
10984000,-68.17366637
10986000,-63.4084011
10988000,-62.53652213
10990000,-60.68966847
10992000,-60.49861242
10994000,-62.00715857
10996000,-63.80170511
10998000,-67.08946813
11000000,-68.8042992
11002000,-69.76907063
11004000,-69.49157926
11006000,-69.29764431
11008000,-65.58592972
11010000,-63.76133165
11012000,-63.58290638
11014000,-61.7581635
11016000,-60.54155958
11018000,-60.41612977
11020000,-61.79021148
11022000,-63.17452898
11024000,-66.27320318
11026000,-67.46129269
11028000,-65.27172108
11030000,-65.36105376
11032000,-64.57337055
11034000,-64.76482745
11036000,-64.56705224
11038000,-65.19784303
11040000,-66.8192217
11042000,-67.17316533
11044000,-71.94457407
11046000,-73.12032783
11048000,-73.50534497
11050000,-71.58731951
11052000,-72.9008037
11054000,-74.48467778
11056000,-72.4825979
11058000,-71.54862342
11060000,-70.28031354
11062000,-70.01981951
11064000,-69.87839041
11066000,-68.90625426
11068000,-70.12015028
11070000,-71.08163319
11072000,-70.41658364
11074000,-69.31760193
11076000,-67.69758354
11078000,-69.13782084
11080000,-66.1821521
11082000,-66.06960027
11084000,-68.99479687
11086000,-67.53192098
11088000,-66.83688982
11090000,-68.95964198
11092000,-68.59754599
11094000,-67.44957641
11096000,-67.6874006
11098000,-66.91833494
11100000,-64.66278422
11102000,-64.4203965
11104000,-66.31582875
11106000,-64.87932601
11108000,-64.50307635
11110000,-67.15131852
11112000,-66.22973649
11114000,-67.21671015
11116000,-70.45201811
11118000,-67.20356206
11120000,-66.08043045
11122000,-65.55083788
11124000,-65.80201816
11126000,-65.08566158
11128000,-65.84850648
11130000,-68.73812872
11132000,-70.51613127
11134000,-71.96156553
11136000,-72.04936934
11138000,-72.02960779
11140000,-73.59492643
11142000,-72.27511385
11144000,-70.03558366
11146000,-68.7857704
11148000,-71.10102149
11150000,-65.86059252
11152000,-65.95968683
11154000,-65.71097265
11156000,-64.42583459
11158000,-65.21441731
11160000,-62.59756124
11162000,-65.52163964
11164000,-64.13503697
11166000,-65.3718282
11168000,-66.68484837
11170000,-69.20811633
11172000,-71.50494453
11174000,-72.22204794
11176000,-73.10840848
11178000,-69.54250441
11180000,-70.65701131
11182000,-70.13668525
11184000,-70.84903523
11186000,-70.26502597
11188000,-71.98259087
11190000,-71.45642597
11192000,-72.61548106
11194000,-71.11290591
11196000,-70.45338254
11198000,-70.93840871
11200000,-68.55164656
11202000,-69.13632129
11204000,-66.64069841
11206000,-67.17581685
11208000,-65.46702639
11210000,-65.03833872
11212000,-66.60901077
11214000,-68.95229884
11216000,-68.36044895
11218000,-68.32756796
11220000,-66.87642498
11222000,-67.38273176
11224000,-65.90066735
11226000,-64.60265979
11228000,-64.3383983
11230000,-65.33111257
11232000,-68.44894696
11234000,-69.64904736
11236000,-70.20063374
11238000,-73.47890489
11240000,-73.44684934
11242000,-73.46258978
11244000,-71.63050935
11246000,-71.71727267
11248000,-72.81858376
11250000,-69.56120084
11252000,-71.72024522
11254000,-68.78040614
11256000,-69.21842307
11258000,-67.40466388
11260000,-66.97907384
11262000,-67.13944605
11264000,-67.13154198
11266000,-68.01367885
11268000,-69.21345336
11270000,-67.89686918
11272000,-69.82154434
11274000,-69.82259289
11276000,-69.75881031
11278000,-68.30545131
11280000,-70.37551444
11282000,-68.10510332
11284000,-68.27414828
11286000,-68.5244575
11288000,-67.4073695
11290000,-68.13936979
11292000,-67.48187037
11294000,-72.76169088
11296000,-70.36483831
11298000,-69.45076186
11300000,-66.72263721
11302000,-66.8793348
11304000,-66.79215606
11306000,-67.04175444
11308000,-69.38931549
11310000,-68.05299754
11312000,-70.00750712
11314000,-67.44936495
11316000,-66.90151057
11318000,-67.61285614
11320000,-66.60209051
11322000,-67.23038578
11324000,-68.24354866
11326000,-68.05849046
11328000,-67.22865094
11330000,-67.109563
11332000,-70.66105608
11334000,-71.0165232
11336000,-69.7516919
11338000,-68.86540387
11340000,-68.05400703
11342000,-67.82906878
11344000,-68.23699011
11346000,-70.73187023
11348000,-70.39549207
11350000,-71.96823272
11352000,-66.24834051
11354000,-65.95344302
11356000,-65.61711003
11358000,-65.98617325
11360000,-67.3686694
11362000,-69.19168921
11364000,-69.48129789
11366000,-67.68732578
11368000,-67.70844032
11370000,-69.29006959
11372000,-71.89745808
11374000,-70.89056597
11376000,-72.24673164
11378000,-70.55176857
11380000,-70.05717609
11382000,-71.37924388
11384000,-72.62034672
11386000,-74.51761183
11388000,-74.22266771
11390000,-72.87984033
11392000,-72.11538904
11394000,-70.7942644
11396000,-70.15422064
11398000,-69.99532475
11400000,-66.69564541
11402000,-67.12795779
11404000,-68.38507536
11406000,-72.58631004
11408000,-71.47632484
11410000,-72.81217408
11412000,-70.74935502
11414000,-72.45002374
11416000,-71.95708889
11418000,-70.42200451
11420000,-72.10151183
11422000,-73.05086442
11424000,-72.40814166
11426000,-71.81090897
11428000,-71.9218615
11430000,-72.38739849
11432000,-73.52583229
11434000,-72.25558374
11436000,-69.55686878
11438000,-72.87643932
11440000,-68.75193234
11442000,-69.65960761
11444000,-67.99632093
11446000,-68.33243817
11448000,-67.93630186
11450000,-67.71663373
11452000,-69.30363622
11454000,-68.23129075
11456000,-70.72769259
11458000,-70.3883528
11460000,-69.73911493
11462000,-68.25925139
11464000,-66.61118247
11466000,-64.81291696
11468000,-65.71393498
11470000,-66.13900263
11472000,-67.81624732
11474000,-68.01471245
11476000,-68.42741705
11478000,-67.56653687
11480000,-68.82751837
11482000,-69.35536665
11484000,-68.20981698
11486000,-67.16957261
11488000,-66.95826688
11490000,-65.55631417
11492000,-68.68458167
11494000,-68.34551225
11496000,-73.03247519
11498000,-72.43813697
11500000,-69.04721782
11502000,-69.07568749
11504000,-67.61281954
11506000,-68.26151256
11508000,-68.10566944
11510000,-69.0915063
11512000,-71.8299021
11514000,-69.20133832
11516000,-71.01868984
11518000,-71.88974956
11520000,-71.98275955
11522000,-71.01768036
11524000,-70.98371479
11526000,-70.6660011
11528000,-70.26497319
11530000,-71.66061383
11532000,-71.18813234
11534000,-72.50544085
11536000,-71.6133482
11538000,-71.52435969
11540000,-69.37204455
11542000,-71.44194222
11544000,-71.58792072
11546000,-70.76981568
11548000,-72.90670546
11550000,-71.70210674
11552000,-68.85464478
11554000,-67.21189859
11556000,-68.23689121
11558000,-66.45723813
11560000,-68.6108138
11562000,-69.58367208
11564000,-71.46345033
11566000,-73.02845619
11568000,-72.38405632
11570000,-76.10333077
11572000,-74.44494257
11574000,-73.30618865
11576000,-74.38367883
11578000,-74.38024127
11580000,-73.62537431
11582000,-74.2515374
11584000,-74.1645452
11586000,-73.13155377
11588000,-72.81404271
11590000,-75.41754382
11592000,-74.9362563
11594000,-73.35202737
11596000,-74.00258903
11598000,-73.45353904
11600000,-73.58040345
11602000,-72.23054837
11604000,-72.3592143
11606000,-71.45857763
11608000,-73.30745496
11610000,-71.12584529
11612000,-72.75387288
11614000,-73.17442166
11616000,-70.49095848
11618000,-70.86762026
11620000,-71.60754295
11622000,-70.27960373
11624000,-70.07937072
11626000,-68.77444956
11628000,-68.92291341
11630000,-70.19425765
11632000,-71.83711639
11634000,-73.05579467
11636000,-71.87951218
11638000,-76.67332244
11640000,-72.69229078
11642000,-70.94455748
11644000,-70.12987923
11646000,-69.76307151
11648000,-71.39039588
11650000,-70.9320485
11652000,-71.30701214
11654000,-71.6131752
11656000,-72.97040061
11658000,-72.41069672
11660000,-69.07512906
11662000,-69.18846521
11664000,-68.94032748
11666000,-69.30011178
11668000,-69.52085674
11670000,-72.43223044
11672000,-73.19560327
11674000,-72.02452413
11676000,-71.1925142
11678000,-69.44384342
11680000,-68.18202517
11682000,-67.05980038
11684000,-68.0742179
11686000,-66.7230923
11688000,-65.69198938
11690000,-65.32377219
11692000,-66.35217149
11694000,-65.01487927
11696000,-69.71758398
11698000,-71.40797328
11700000,-70.0632296
11702000,-73.13293834
11704000,-71.95764832
11706000,-70.52696067
11708000,-70.41246644
11710000,-68.77833406
11712000,-68.85353475
11714000,-72.37826097
11716000,-73.1083902
11718000,-73.6179905
11720000,-70.9001392
11722000,-71.83756242
11724000,-71.24682781
11726000,-70.75977263
11728000,-69.33813053
11730000,-70.62454276
11732000,-69.25228134
11734000,-67.70428638
11736000,-67.02423261
11738000,-66.66757104
11740000,-69.18535004
