Trace
Swept SA
A.12.13,N9010A
513 B25 DP2 RTL ,01
Segment,0
Number of Points,1001
Sweep Time,0.01
Start Frequency,10000000
Stop Frequency,14000000
Average Count,0
Average Type,LogPower(Video)
RBW,10000
RBW Filter,Gaussian
RBW Filter BW,3dB
VBW,10000
Sweep Type,Swept
X Axis Scale,Lin
PreAmp State,Off
PreAmp Band,Low
Trigger Source,Free
Trigger Level,1.2
Trigger Slope,Positive
Trigger Delay,0
Phase Noise Optimization,Narrow
Swept If Gain,Low
FFT If Gain,Autorange
RF Coupling,AC
FFT Width,411900
Ext Ref,10000000
Input,RF
RF Calibrator,Off
Attenuation,30
Ref Level Offset,0
External Gain,0
Trace Type,Average
Detector,Sample
Trace Math,Off
Trace Math Oper1,Trace5
Trace Math Oper2,Trace6
Trace Math Offset,0
Trace Name,Trace1
X Axis Units,Hz
Y Axis Units,dBm
DATA
10000000,-69.805808613055
10004000,-69.8780170243686
10008000,-69.994056704065
10012000,-70.0953431008049
10016000,-70.0628418871459
10020000,-69.9452274949438
10024000,-69.8935052213396
10028000,-69.9457678060298
10032000,-70.0140822515446
10036000,-70.0118997360322
10040000,-69.930064442546
10044000,-69.8960232701329
10048000,-69.8681560083859
10052000,-69.7745336745136
10056000,-69.6774004404004
10060000,-69.5726399605775
10064000,-69.4881155060844
10068000,-69.4734178783943
10072000,-69.5118440511053
10076000,-69.5106102537201
10080000,-69.4797464902342
10084000,-69.4707213388343
10088000,-69.5469949095634
10092000,-69.6652221533207
10096000,-69.717365327378
10100000,-69.7313240792947
10104000,-69.6748687740898
10108000,-69.5978578261524
10112000,-69.6144862646288
10116000,-69.6669765556998
10120000,-69.7002649527113
10124000,-69.7735472553064
10128000,-69.8572430418813
10132000,-69.8472509624187
10136000,-69.8236082564795
10140000,-69.8031768702918
10144000,-69.7387738126749
10148000,-69.7061019368506
10152000,-69.7227407749594
10156000,-69.6591698509895
10160000,-69.504219056805
10164000,-69.3196409703238
10168000,-69.1703571139172
10172000,-69.0376075753011
10176000,-68.9708195061074
10180000,-69.014639919593
10184000,-69.0609390648159
10188000,-68.989263704652
10192000,-68.8875618567057
10196000,-68.8204665268498
10200000,-68.8396584691851
10204000,-68.853101155886
10208000,-68.8452369886665
10212000,-68.9415852067337
10216000,-69.1149078308782
10220000,-69.1999846675658
10224000,-69.199601790415
10228000,-69.0799021071295
10232000,-68.6172385222206
10236000,-67.8193904828307
10240000,-66.9128585420742
10244000,-66.116597324469
10248000,-65.7063361270885
10252000,-65.6473245270109
10256000,-65.7967230766242
10260000,-66.0454863508102
10264000,-66.3337741579833
10268000,-66.614270902622
10272000,-66.9839121763117
10276000,-67.5050490913407
10280000,-68.0612801758622
10284000,-68.5145274744034
10288000,-68.9143779594907
10292000,-69.22834326728
10296000,-69.3984246913112
10300000,-69.4876820555796
10304000,-69.6361908977049
10308000,-69.73141970815
10312000,-69.8008262892196
10316000,-69.9137571343442
10320000,-70.008120390343
10324000,-70.0653101355573
10328000,-69.9659978869146
10332000,-69.8948833206933
10336000,-69.9441947514116
10340000,-69.9146026013223
10344000,-69.7798552469808
10348000,-69.6255673596697
10352000,-69.468783865555
10356000,-69.3036892217945
10360000,-69.0850463005912
10364000,-68.9837475112498
10368000,-69.033756565322
10372000,-69.2949010151609
10376000,-69.5432993423181
10380000,-69.6443505607306
10384000,-69.6121029221179
10388000,-69.6085765923622
10392000,-69.4846883891461
10396000,-69.3050178462039
10400000,-69.2114646799039
10404000,-69.2844351357801
10408000,-69.5155453486832
10412000,-69.7691284581124
10416000,-69.7820740820436
10420000,-69.6861254629257
10424000,-69.6427135832944
10428000,-69.7145227787956
10432000,-69.7237563672971
10436000,-69.6837179058012
10440000,-69.4942150920978
10444000,-69.306944648742
10448000,-69.2220248351472
10452000,-69.2335370421252
10456000,-69.2237904035062
10460000,-69.1318714106676
10464000,-69.0463468711983
10468000,-68.9816204711675
10472000,-68.9294180129485
10476000,-68.9273450541217
10480000,-69.0186838494114
10484000,-69.1894832200498
10488000,-69.3476107838751
10492000,-69.5281632128991
10496000,-69.6991270313939
10500000,-69.842679662757
10504000,-69.8982722077311
10508000,-69.8145726587707
10512000,-69.6481395068254
10516000,-69.4627184868291
10520000,-69.3274932624256
10524000,-69.2752796080688
10528000,-69.2881012465612
10532000,-69.4732487041019
10536000,-69.6356534221119
10540000,-69.6304703949811
10544000,-69.5638105787188
10548000,-69.480689124966
10552000,-69.4689760684399
10556000,-69.5048895921079
10560000,-69.6453951828668
10564000,-69.8132468563899
10568000,-70.0430849418777
10572000,-70.1412685967798
10576000,-70.1178737433775
10580000,-70.0557310488935
10584000,-69.9785000970294
10588000,-69.8960445984163
10592000,-69.777753973482
10596000,-69.6702678748299
10600000,-69.7176027224968
10604000,-69.7673916770528
10608000,-69.7208057783602
10612000,-69.6167878944962
10616000,-69.476620118613
10620000,-69.3632594993
10624000,-69.3025366529116
10628000,-69.3234128613853
10632000,-69.3095123940585
10636000,-69.2117057547006
10640000,-69.1433445665806
10644000,-69.2272271234372
10648000,-69.3483056977884
10652000,-69.4773567222928
10656000,-69.5735444015822
10660000,-69.5568867890231
10664000,-69.5639839373289
10668000,-69.5340641685412
10672000,-69.3198017728745
10676000,-69.1797416576418
10680000,-69.2301127409698
10684000,-69.3952638991454
10688000,-69.5170972120287
10692000,-69.5073378874156
10696000,-69.513173677226
10700000,-69.4673827717117
10704000,-69.3771265209747
10708000,-69.379966222072
10712000,-69.4080729258371
10716000,-69.3573968449346
10720000,-69.2055547890053
10724000,-69.0534480389117
10728000,-69.0528005458755
10732000,-69.1005272776666
10736000,-69.2115862726997
10740000,-69.4167636883123
10744000,-69.6402110780307
10748000,-69.7473029454851
10752000,-69.6740270738164
10756000,-69.4400369190584
10760000,-69.2160151683562
10764000,-69.0591433748914
10768000,-69.0503837209823
10772000,-69.2049133162235
10776000,-69.5144012077003
10780000,-69.7089086113914
10784000,-69.7977774867875
10788000,-69.8414423482786
10792000,-69.8515498715622
10796000,-69.7255430053171
10800000,-69.6445821452168
10804000,-69.4521204282659
10808000,-69.3973639210917
10812000,-69.3872957821714
10816000,-69.4119530216994
10820000,-69.4596640193355
10824000,-69.5246133393146
10828000,-69.5169046275493
10832000,-69.526367644506
10836000,-69.569698327651
10840000,-69.6718925847664
10844000,-69.7891753678551
10848000,-69.8427114492073
10852000,-69.82356470551
10856000,-69.7149548693275
10860000,-69.6546703172159
10864000,-69.6146914817708
10868000,-69.5405268132707
10872000,-69.366684127354
10876000,-69.1929508893537
10880000,-69.1141522718091
10884000,-69.1710289356966
10888000,-69.3374161721191
10892000,-69.5131123287448
10896000,-69.6893288605501
10900000,-69.8215518255024
10904000,-69.7999262408938
10908000,-69.763192683304
10912000,-69.7533609339323
10916000,-69.6630824312256
10920000,-69.5216823394766
10924000,-69.4626586168159
10928000,-69.5903996181168
10932000,-69.8100422773238
10936000,-69.9896042974849
10940000,-69.9437047273428
10944000,-69.8039519125688
10948000,-69.7070265823988
10952000,-69.6015997630466
10956000,-69.4165159461211
10960000,-69.3992859353265
10964000,-69.4879540608945
10968000,-69.6113901983103
10972000,-69.726194127094
10976000,-69.7458761104441
10980000,-69.6577744122218
10984000,-69.6225795514987
10988000,-69.5376154755785
10992000,-69.433076713974
10996000,-69.4125367424356
11000000,-69.4315908126264
11004000,-69.5281300382593
11008000,-69.6436548702387
11012000,-69.5771333616842
11016000,-69.4079453190495
11020000,-69.313641836373
11024000,-69.2855352388875
11028000,-69.2721025049164
11032000,-69.2873252534577
11036000,-69.366914227205
11040000,-69.2956777449047
11044000,-69.2000629592374
11048000,-69.1547109747318
11052000,-69.1639405654664
11056000,-69.2479831107651
11060000,-69.3514435367741
11064000,-69.4571713794359
11068000,-69.5826367187862
11072000,-69.4747856329418
11076000,-69.3773934283527
11080000,-69.3756032607324
11084000,-69.3947957374683
11088000,-69.308635388182
11092000,-69.1726358049674
11096000,-69.0986587865371
11100000,-69.170649870583
11104000,-69.1885923770465
11108000,-69.1491727115365
11112000,-69.1769054750106
11116000,-69.2637358866402
11120000,-69.3438889096669
11124000,-69.4056003210609
11128000,-69.5029494447196
11132000,-69.6476880439197
11136000,-69.665995211594
11140000,-69.5978787270402
11144000,-69.5454739458429
11148000,-69.3502261742003
11152000,-69.1437100829441
11156000,-68.9665634106453
11160000,-68.8946568800596
11164000,-68.8810419870289
11168000,-68.9439012586031
11172000,-69.040579440032
11176000,-69.2014595139628
11180000,-69.2871688306411
11184000,-69.2735847679287
11188000,-69.1802369459062
11192000,-69.2144427475913
11196000,-69.3455259062326
11200000,-69.3885560481208
11204000,-69.3892570754327
11208000,-69.3963610278453
11212000,-69.4039172260454
11216000,-69.3491618442267
11220000,-69.3447950014978
11224000,-69.3236512145238
11228000,-69.213197776336
11232000,-69.0757140903704
11236000,-68.9466049285662
11240000,-68.9387766500625
11244000,-69.0585811985206
11248000,-69.1180718007922
11252000,-69.0580526664365
11256000,-69.00348103137
11260000,-68.9570136780599
11264000,-68.9863640168233
11268000,-68.9216594224375
11272000,-68.8668142136127
11276000,-68.8908140006695
11280000,-68.9109596007516
11284000,-68.9064166905928
11288000,-68.9042394154942
11292000,-68.9009926134624
11296000,-68.9206458681095
11300000,-68.9218977236022
11304000,-68.8718934896417
11308000,-68.8819874535137
11312000,-69.0170436346832
11316000,-69.2314314112351
11320000,-69.4413404616736
11324000,-69.4538410073238
11328000,-69.38198025687
11332000,-69.245014994867
11336000,-68.9785419022913
11340000,-68.7376770178374
11344000,-68.6552842979527
11348000,-68.7590111941929
11352000,-68.9143662394573
11356000,-68.9687953365199
11360000,-68.9306388191034
11364000,-69.0486694117671
11368000,-69.2287209149405
11372000,-69.3420420965992
11376000,-69.3894297396352
11380000,-69.4011336840549
11384000,-69.2918887319489
11388000,-69.0783500870131
11392000,-68.9475365188415
11396000,-68.8949760262623
11400000,-68.8555817576094
11404000,-68.7851671757065
11408000,-68.6317646263704
11412000,-68.5260160869043
11416000,-68.6117447895042
11420000,-68.8006966587824
11424000,-69.0963702283773
11428000,-69.2674632965379
11432000,-69.2584121825163
11436000,-69.2083450206564
11440000,-69.2000977541185
11444000,-68.9872784239131
11448000,-68.7028205372485
11452000,-68.5426215322184
11456000,-68.523170516936
11460000,-68.5723261898467
11464000,-68.6663972507191
11468000,-68.6808969721339
11472000,-68.6235261625988
11476000,-68.5561050166582
11480000,-68.4220374846739
11484000,-68.3257142400099
11488000,-68.2243763848595
11492000,-68.1054767840699
11496000,-68.0763702833043
11500000,-68.118220482577
11504000,-68.1049252708162
11508000,-68.1735894428074
11512000,-68.333041166057
11516000,-68.3926609886006
11520000,-68.3176099859338
11524000,-68.2991569923978
11528000,-68.3667081982266
11532000,-68.3392637467022
11536000,-68.3186258784345
11540000,-68.2718593961909
11544000,-68.1251001317643
11548000,-67.9522092895902
11552000,-67.7984374062011
11556000,-67.6694846312564
11560000,-67.51172841323
11564000,-67.3776863084314
11568000,-67.2526350778758
11572000,-67.3138276896361
11576000,-67.595012147437
11580000,-67.7225514219872
11584000,-67.7750683387889
11588000,-67.8295453821301
11592000,-67.8945846470004
11596000,-67.9124265256989
11600000,-67.8321905104437
11604000,-67.6675880406316
11608000,-67.4484410098817
11612000,-67.2282764570189
11616000,-67.0506869618276
11620000,-66.9263919216506
11624000,-66.8600839660524
11628000,-66.8298679765566
11632000,-66.8094051931487
11636000,-66.8375239236694
11640000,-66.8814564541974
11644000,-66.8330876543017
11648000,-66.7546611040921
11652000,-66.66665644529
11656000,-66.5031335622544
11660000,-66.2411333717034
11664000,-66.0115824059353
11668000,-65.8391906226519
11672000,-65.8026848930419
11676000,-65.8703528118424
11680000,-66.0728464869625
11684000,-66.2661998527851
11688000,-66.4826722761793
11692000,-66.6642140266054
11696000,-66.7570105025792
11700000,-66.7760737790119
11704000,-66.4988466714828
11708000,-66.0050867782576
11712000,-65.585344434474
11716000,-65.2896647080996
11720000,-65.1995964973696
11724000,-65.2953577691891
11728000,-65.457592524004
11732000,-65.63484467378
11736000,-65.8183183291946
11740000,-65.9545584206786
11744000,-66.0130610841756
11748000,-65.852686550539
11752000,-65.4328049186731
11756000,-64.8391602195467
11760000,-64.1155381334442
11764000,-63.4548055684143
11768000,-63.0209453157211
11772000,-62.8865334301364
11776000,-63.028115597633
11780000,-63.2938485129969
11784000,-63.631223755678
11788000,-63.8521594281133
11792000,-63.8102748007367
11796000,-63.5036652670803
11800000,-62.8628328512244
11804000,-62.0437579426641
11808000,-61.2448291742901
11812000,-60.4034689010806
11816000,-59.6246019806225
11820000,-59.0299865875184
11824000,-58.5772588966781
11828000,-58.4386049291238
11832000,-58.7715776759934
11836000,-59.4127939884422
11840000,-59.6765133265825
11844000,-59.4740855881084
11848000,-58.6135610545629
11852000,-57.4293450598516
11856000,-56.3526777329149
11860000,-55.3925909767532
11864000,-54.5726854619558
11868000,-54.171817357087
11872000,-54.3886523938551
11876000,-55.3007207914947
11880000,-56.6487301087495
11884000,-57.6342090616952
11888000,-57.2503298009185
11892000,-55.3902246645509
11896000,-53.0670065532418
11900000,-50.9586920438001
11904000,-49.4226502406562
11908000,-48.6041334221999
11912000,-47.9507525939528
11916000,-47.2851507333018
11920000,-46.6537608169982
11924000,-45.8601447794914
11928000,-45.2511984514556
11932000,-44.679184890528
11936000,-44.0085738611547
11940000,-42.884632329514
11944000,-41.209661279552
11948000,-39.224114951741
11952000,-37.4339506932281
11956000,-36.1167880504666
11960000,-35.0012942932069
11964000,-33.984433872104
11968000,-33.3271382165875
11972000,-32.5414703887975
11976000,-31.0739880366811
11980000,-29.4270902692401
11984000,-28.0850169698718
11988000,-27.3262107224633
11992000,-27.2664514453407
11996000,-27.4737714074449
12000000,-27.1160076111768
12004000,-26.053888691864
12008000,-24.3299942342621
12012000,-22.739462290115
12016000,-21.6803968923997
12020000,-21.3315365240069
12024000,-21.1510002275039
12028000,-20.9714384265856
12032000,-21.2396918454226
12036000,-22.178364797323
12040000,-23.8883952038866
12044000,-26.2136348907826
12048000,-28.6437274570976
12052000,-30.6484204755491
12056000,-32.5900662156218
12060000,-34.8820028419791
12064000,-36.9941388647651
12068000,-39.1285671858446
12072000,-41.0880824845995
12076000,-41.9923163313298
12080000,-41.8186746266241
12084000,-41.2272894836383
12088000,-40.8846442385117
12092000,-41.1358407001254
12096000,-42.1183215817955
12100000,-43.324936028041
12104000,-44.4890369592664
12108000,-45.5183005668862
12112000,-46.5127525867827
12116000,-47.8641736673725
12120000,-49.5814108731723
12124000,-51.3045074496409
12128000,-52.699688712313
12132000,-53.2012858289275
12136000,-53.2940776231452
12140000,-53.4081992981641
12144000,-53.2418946759924
12148000,-53.0291538456085
12152000,-53.1340002742283
12156000,-53.3631466834469
12160000,-53.7208555579313
12164000,-54.3634144869067
12168000,-55.0894454247652
12172000,-55.8110838269541
12176000,-56.3869543842551
12180000,-56.9214766219704
12184000,-57.7344831618374
12188000,-58.7718463032321
12192000,-59.5111218871817
12196000,-59.552121459019
12200000,-59.0166601748819
12204000,-58.3386184668691
12208000,-57.9490859935538
12212000,-58.1268589228595
12216000,-58.9399649299794
12220000,-60.2338836774784
12224000,-61.4815952102246
12228000,-62.4739674805313
12232000,-63.2459803160607
12236000,-63.7988160031054
12240000,-64.0055746363672
12244000,-63.6342989556283
12248000,-62.7927495785088
12252000,-61.8548472260148
12256000,-61.1295098910921
12260000,-60.8654802473182
12264000,-60.9928468400063
12268000,-61.4999885480722
12272000,-62.3587759161257
12276000,-63.329469199098
12280000,-64.1602878752466
12284000,-64.5962979367181
12288000,-64.5537242673759
12292000,-64.2174409260452
12296000,-63.8069325275292
12300000,-63.4880539215694
12304000,-63.194509274931
12308000,-62.9612354618953
12312000,-62.9594374140664
12316000,-63.3593419854985
12320000,-63.9471484046466
12324000,-64.4746631257079
12328000,-64.9892312590985
12332000,-65.4444722662886
12336000,-65.6360117768054
12340000,-65.6777678614477
12344000,-65.8591890967587
12348000,-66.129121088832
12352000,-66.4385193846668
12356000,-66.6058249132154
12360000,-66.7349763892484
12364000,-66.8900363803794
12368000,-67.0271677021176
12372000,-67.1960192629185
12376000,-67.40292301352
12380000,-67.4158587509947
12384000,-67.2573270810753
12388000,-66.7629625486285
12392000,-66.1927324492129
12396000,-65.8189370733006
12400000,-65.7517798065114
12404000,-66.0276836384186
12408000,-66.6244477489965
12412000,-67.1669220957406
12416000,-67.5057200462642
12420000,-67.6907099985725
12424000,-67.7647995330892
12428000,-67.8153368556452
12432000,-67.966816589203
12436000,-68.0028353788139
12440000,-67.8451923070387
12444000,-67.6260350068138
12448000,-67.483832892102
12452000,-67.4231086744278
12456000,-67.4681182004605
12460000,-67.6050390153601
12464000,-67.8240286086908
12468000,-68.0308018042709
12472000,-68.1251004047479
12476000,-68.2249222083357
12480000,-68.3162384684586
12484000,-68.3817752260076
12488000,-68.4493992412955
12492000,-68.4253954398956
12496000,-68.5356766381186
12500000,-68.7620272006389
12504000,-68.9829026316181
12508000,-68.9450759083296
12512000,-68.7252672622036
12516000,-68.5288259479902
12520000,-68.3129392066232
12524000,-68.0616183604547
12528000,-67.9367341854571
12532000,-67.9730554264666
12536000,-68.0191278685416
12540000,-68.0776453617192
12544000,-68.1925993748176
12548000,-68.2941699447567
12552000,-68.4860047718316
12556000,-68.6639272686262
12560000,-68.712900438238
12564000,-68.8070313242952
12568000,-69.0469689816812
12572000,-69.3121414492566
12576000,-69.2719018041018
12580000,-69.1319504752065
12584000,-68.8167086809741
12588000,-68.4613269971163
12592000,-68.1826010731906
12596000,-68.1336817964475
12600000,-68.2341613787465
12604000,-68.3272406996264
12608000,-68.3910018177593
12612000,-68.416945154714
12616000,-68.4492556648759
12620000,-68.4896590667706
12624000,-68.5899859266423
12628000,-68.729457270998
12632000,-68.922859789251
12636000,-69.0707956989441
12640000,-69.1482596151536
12644000,-69.1587287716193
12648000,-69.1020875173656
12652000,-69.1541329400336
12656000,-69.1335688351126
12660000,-68.9385574747047
12664000,-68.7372093444164
12668000,-68.6345762651012
12672000,-68.7458150483963
12676000,-68.8827233570528
12680000,-69.0623681191475
12684000,-69.3370135442415
12688000,-69.518864704024
12692000,-69.606507324765
12696000,-69.6752681994616
12700000,-69.8707219722781
12704000,-70.1567161267453
12708000,-70.3116814117082
12712000,-70.199268530865
12716000,-69.9236369019969
12720000,-69.6612210481743
12724000,-69.5799654331074
12728000,-69.7303534963668
12732000,-69.8650883762113
12736000,-69.9096124719282
12740000,-69.889169603394
12744000,-69.8487358168624
12748000,-69.7591076644911
12752000,-69.5761469817453
12756000,-69.3555649499265
12760000,-69.2395517283076
12764000,-69.353346039902
12768000,-69.5373238605383
12772000,-69.6377581937096
12776000,-69.7276966131774
12780000,-69.7656293709355
12784000,-69.8073198481281
12788000,-69.9479472372743
12792000,-70.1593505968127
12796000,-70.3161752837116
12800000,-70.3665477344987
12804000,-70.3809884524815
12808000,-70.4761204462072
12812000,-70.587573198287
12816000,-70.5542615844534
12820000,-70.5370745191208
12824000,-70.4978909331842
12828000,-70.4193378236043
12832000,-70.3427523240032
12836000,-70.2622343762116
12840000,-70.1543236675083
12844000,-70.1004068049125
12848000,-69.9952316262093
12852000,-69.8411473752833
12856000,-69.681424672671
12860000,-69.5570779056256
12864000,-69.4543952653034
12868000,-69.4405380578189
12872000,-69.571302858445
12876000,-69.7554043281883
12880000,-69.7822447317118
12884000,-69.6153983762005
12888000,-69.3797616016315
12892000,-69.2842286519396
12896000,-69.3155031903257
12900000,-69.413983323805
12904000,-69.5362017151884
12908000,-69.6898839641841
12912000,-69.8797537753057
12916000,-70.0745121516628
12920000,-70.2568187097258
12924000,-70.3865126617049
12928000,-70.4295714862392
12932000,-70.4173274566598
12936000,-70.4718164689145
12940000,-70.6031042563112
12944000,-70.6758848392072
12948000,-70.7295073895654
12952000,-70.633446304477
12956000,-70.3065971201027
12960000,-69.9865546275531
12964000,-69.6897776765137
12968000,-69.5031334284627
12972000,-69.4793640112471
12976000,-69.6317741911278
12980000,-69.8587866893659
12984000,-70.0252286072369
12988000,-70.0358331889045
12992000,-69.9472736281606
12996000,-69.8398337967766
13000000,-69.6753510389742
13004000,-69.5681455663959
13008000,-69.5668380998471
13012000,-69.6485533951826
13016000,-69.7464637663631
13020000,-69.8955490793523
13024000,-70.0449596135705
13028000,-70.0471156980251
13032000,-70.0557888925174
13036000,-70.0504739048853
13040000,-70.1004255540759
13044000,-70.244124827657
13048000,-70.4241304762542
13052000,-70.6006333963079
13056000,-70.6674699526617
13060000,-70.6598459548893
13064000,-70.6004082059375
13068000,-70.590787046967
13072000,-70.6243496918353
13076000,-70.6486537100368
13080000,-70.7072911980531
13084000,-70.7976375824478
13088000,-70.7474795808982
13092000,-70.6235218051887
13096000,-70.4254859934101
13100000,-70.3445658562958
13104000,-70.3478365649079
13108000,-70.3774075119427
13112000,-70.4004553075603
13116000,-70.3525543872487
13120000,-70.2341493687371
13124000,-70.1219702584091
13128000,-70.0467927525533
13132000,-69.9956782141628
13136000,-69.9088417501443
13140000,-69.8353669087536
13144000,-69.8915767005224
13148000,-70.0157170769817
13152000,-70.121700137834
13156000,-70.154163371299
13160000,-70.1512742434693
13164000,-70.1644359093036
13168000,-70.236751260283
13172000,-70.2918209075834
13176000,-70.2743809302977
13180000,-70.2824125121879
13184000,-70.3495269248966
13188000,-70.3908835927236
13192000,-70.4653937958383
13196000,-70.5351911553042
13200000,-70.44071109883
13204000,-70.2865405824098
13208000,-70.1682432828058
13212000,-70.0692314827827
13216000,-70.0663881035114
13220000,-70.1848678897342
13224000,-70.2875055197909
13228000,-70.3920743319601
13232000,-70.5392298124828
13236000,-70.5800927558825
13240000,-70.4981466450717
13244000,-70.4775588769758
13248000,-70.5012135175038
13252000,-70.5228351407877
13256000,-70.5289378303601
13260000,-70.5410597148522
13264000,-70.566405218205
13268000,-70.6480630585033
13272000,-70.7759116767458
13276000,-70.9084988392458
13280000,-70.9019267528542
13284000,-70.8021553885265
13288000,-70.6678162802376
13292000,-70.4774849904685
13296000,-70.1822399728838
13300000,-69.9047283151948
13304000,-69.6566677754591
13308000,-69.4672316714016
13312000,-69.4094444217923
13316000,-69.5449511462879
13320000,-69.731116218811
13324000,-69.9413240253599
13328000,-70.1282550598396
13332000,-70.276066708894
13336000,-70.3836234093083
13340000,-70.4190590334095
13344000,-70.3259051660064
13348000,-70.1299211965366
13352000,-69.9520789466648
13356000,-69.8368663863067
13360000,-69.7878772301954
13364000,-69.7853250914024
13368000,-69.8664439578488
13372000,-69.974649769916
13376000,-69.9936642547541
13380000,-70.0389094951733
13384000,-70.1566819244819
13388000,-70.250122668581
13392000,-70.2805075460032
13396000,-70.4330663640861
13400000,-70.7143314067909
13404000,-70.8807499932111
13408000,-70.8974700309224
13412000,-70.8816503654092
13416000,-70.8358674029211
13420000,-70.8615121461595
13424000,-70.8695595262366
13428000,-70.7333388824844
13432000,-70.5283903112981
13436000,-70.2582548407133
13440000,-70.0435939547041
13444000,-70.0003410426581
13448000,-69.9332757917845
13452000,-69.9091551372902
13456000,-69.9345605741241
13460000,-70.0368889008772
13464000,-70.1808412909507
13468000,-70.4239800020606
13472000,-70.6649551560587
13476000,-70.7862407105343
13480000,-70.8329374451017
13484000,-70.8353189253084
13488000,-70.706234325685
13492000,-70.5098703072745
13496000,-70.2553394369211
13500000,-70.1549018053368
13504000,-70.1903676400438
13508000,-70.08248634801
13512000,-70.0145222726158
13516000,-70.0073180883862
13520000,-70.0248129711228
13524000,-69.9961514358672
13528000,-69.8533124769306
13532000,-69.7651676870544
13536000,-69.8223492621614
13540000,-69.981612118255
13544000,-70.2452844799003
13548000,-70.4139077439684
13552000,-70.3826794932684
13556000,-70.2903348053088
13560000,-70.1863212624476
13564000,-70.1434864696602
13568000,-70.2188920310748
13572000,-70.3869175251203
13576000,-70.4244644832512
13580000,-70.4776693602564
13584000,-70.5581949847785
13588000,-70.5001141097978
13592000,-70.2595850069563
13596000,-70.0373631586505
13600000,-69.822194019712
13604000,-69.8099016360492
13608000,-69.8143672683745
13612000,-69.811528618851
13616000,-69.8969857241818
13620000,-70.0984987661412
13624000,-70.2616269685756
13628000,-70.2822773672022
13632000,-70.2450927825079
13636000,-70.171126768278
13640000,-70.138022525376
13644000,-70.0919569876261
13648000,-69.9142888807711
13652000,-69.8342322796755
13656000,-69.9746660602194
13660000,-70.20698759725
13664000,-70.3545431940724
13668000,-70.390585904922
13672000,-70.4360029529392
13676000,-70.4888224820953
13680000,-70.5430795930346
13684000,-70.5689104874693
13688000,-70.5071271379077
13692000,-70.2811496580296
13696000,-70.0339422602979
13700000,-69.7948580552392
13704000,-69.6149828234542
13708000,-69.423793546199
13712000,-69.1520800100484
13716000,-68.9056340931567
13720000,-68.6213698288327
13724000,-68.1248566505533
13728000,-67.3881714225559
13732000,-66.3895877202976
13736000,-65.1428189279942
13740000,-63.8572179769912
13744000,-62.7532951639672
13748000,-61.9704563032061
13752000,-61.5330092593098
13756000,-61.3295649607537
13760000,-61.4736649696524
13764000,-62.1016728356036
13768000,-63.1163685878826
13772000,-64.1744680546881
13776000,-65.0056640349037
13780000,-65.5019102037656
13784000,-65.8580876757182
13788000,-66.2711591284499
13792000,-66.8566667341837
13796000,-67.5018985949091
13800000,-68.1537414968681
13804000,-68.742632734045
13808000,-69.3282652866473
13812000,-69.7852375474675
13816000,-70.071309884897
13820000,-70.3323163639995
13824000,-70.4184646263071
13828000,-70.5073725130922
13832000,-70.614350770025
13836000,-70.715460102134
13840000,-70.6835103404051
13844000,-70.5137178609809
13848000,-70.2017076050697
13852000,-69.9017280309113
13856000,-69.627047173865
13860000,-69.3680969724317
13864000,-69.1974703677556
13868000,-69.1458637870801
13872000,-69.2381713178063
13876000,-69.4087644483877
13880000,-69.5611723087407
13884000,-69.824072012901
13888000,-70.1475130785214
13892000,-70.4585962774673
13896000,-70.5733866268685
13900000,-70.5980362618954
13904000,-70.5855186425636
13908000,-70.5918587620469
13912000,-70.4480117324911
13916000,-70.3896197297961
13920000,-70.4310739400835
13924000,-70.4119694415309
13928000,-70.335485027679
13932000,-70.359580688967
13936000,-70.4430627539717
13940000,-70.5373964196635
13944000,-70.6059881851569
13948000,-70.6447074527115
13952000,-70.5094114566099
13956000,-70.3110187738264
13960000,-70.2284357565594
13964000,-70.2095784727811
13968000,-70.2446731118149
13972000,-70.3958091546016
13976000,-70.536168468743
13980000,-70.6621405670547
13984000,-70.7191381327608
13988000,-70.6477531858349
13992000,-70.5565226684801
13996000,-70.6111795600267
14000000,-70.7496092024982
