Trace
Swept SA
A.12.13,N9010A
513 B25 DP2 RTL ,01
Segment,0
Number of Points,1001
Sweep Time,0.02
Start Frequency,12000000
Stop Frequency,16000000
Average Count,0
Average Type,LogPower(Video)
RBW,10000
RBW Filter,Gaussian
RBW Filter BW,3dB
VBW,10000
Sweep Type,Swept
X Axis Scale,Lin
PreAmp State,Off
PreAmp Band,Low
Trigger Source,Free
Trigger Level,1.2
Trigger Slope,Positive
Trigger Delay,0
Phase Noise Optimization,Narrow
Swept If Gain,Low
FFT If Gain,Autorange
RF Coupling,AC
FFT Width,411900
Ext Ref,10000000
Input,RF
RF Calibrator,Off
Attenuation,30
Ref Level Offset,0
External Gain,0
Trace Type,Average
Detector,Sample
Trace Math,Off
Trace Math Oper1,Trace5
Trace Math Oper2,Trace6
Trace Math Offset,0
Trace Name,Trace1
X Axis Units,Hz
Y Axis Units,dBm
DATA
12000000,-19.3600785386778
12004000,-17.2584329540098
12008000,-15.5505655226616
12012000,-15.2057481383352
12016000,-13.9373111661986
12020000,-13.0937922787373
12024000,-13.5898205545735
12028000,-13.2640537548856
12032000,-13.2859242657201
12036000,-14.9489989532669
12040000,-18.0987333393049
12044000,-20.7895286600415
12048000,-24.0245600333651
12052000,-27.5312772110537
12056000,-30.6774375624156
12060000,-34.2541222658738
12064000,-36.7665708903289
12068000,-38.3540573596293
12072000,-36.8174155101317
12076000,-34.0751919233902
12080000,-32.6988328930965
12084000,-33.4474597749426
12088000,-36.4280875575158
12092000,-39.9437567307747
12096000,-40.6458784841422
12100000,-40.1677857417271
12104000,-40.6917014306475
12108000,-40.9099934996885
12112000,-41.4914189398124
12116000,-43.7696330350636
12120000,-44.5578326955467
12124000,-41.909757904111
12128000,-39.8011495604116
12132000,-39.549224456689
12136000,-41.5131270635319
12140000,-45.6481607774474
12144000,-46.9681071994216
12148000,-45.9910131307428
12152000,-46.1814159584091
12156000,-46.2813981561054
12160000,-45.6595691525726
12164000,-46.3139993918588
12168000,-48.0809481831261
12172000,-47.0778115465387
12176000,-45.114216748296
12180000,-44.0981382926232
12184000,-44.6507924544664
12188000,-46.7405115597565
12192000,-48.8279547137123
12196000,-49.8427313346011
12200000,-49.9894153233242
12204000,-50.0700994037265
12208000,-49.2888034791403
12212000,-49.5605163099882
12216000,-50.7454325163533
12220000,-50.9426547361887
12224000,-50.0314913576985
12228000,-48.3920493443333
12232000,-48.4318920234284
12236000,-50.7553467321389
12240000,-52.97496880524
12244000,-53.4339773647785
12248000,-52.5608312285242
12252000,-52.2685855259091
12256000,-51.0597229471398
12260000,-50.1476131178831
12264000,-50.535599667527
12268000,-50.5348319010425
12272000,-51.2511877534939
12276000,-52.6255782250647
12280000,-53.1786227404025
12284000,-53.4804928641919
12288000,-52.6055010298663
12292000,-52.5590368808081
12296000,-52.4213066167733
12300000,-51.8856056152891
12304000,-52.3562542039152
12308000,-53.1816224332409
12312000,-53.7936022524944
12316000,-53.6138918952104
12320000,-53.2737818793953
12324000,-53.5305733842033
12328000,-52.6846873361426
12332000,-52.8766758114318
12336000,-54.6360053908416
12340000,-55.270615813233
12344000,-54.8862274815262
12348000,-53.5914124435591
12352000,-53.4810992774909
12356000,-54.500773740641
12360000,-55.0189986713594
12364000,-55.0023270717888
12368000,-53.9901812271831
12372000,-54.3022446009437
12376000,-56.5134040730314
12380000,-57.7002659962336
12384000,-57.0683100902454
12388000,-55.6712505898351
12392000,-55.4268679153291
12396000,-54.7781638946288
12400000,-53.9708894569124
12404000,-54.376413399749
12408000,-54.5209788273727
12412000,-55.0162375871624
12416000,-55.8886541624167
12420000,-55.6185852286494
12424000,-55.8988468956316
12428000,-55.8815814672997
12432000,-56.2384190305159
12436000,-56.4487664393573
12440000,-56.2172052165777
12444000,-56.3405729710989
12448000,-55.6800600163685
12452000,-56.0542425687999
12456000,-57.5273771032221
12460000,-58.1751492523772
12464000,-57.5780254069429
12468000,-56.2752728405737
12472000,-56.3871397934599
12476000,-57.4575186632723
12480000,-57.7176517487727
12484000,-57.623834749325
12488000,-57.1825277921058
12492000,-56.9969684747131
12496000,-56.46659368378
12500000,-55.9165017569863
12504000,-56.4859243869274
12508000,-57.2174147704559
12512000,-57.1571234433349
12516000,-56.0806760008429
12520000,-55.2655974950614
12524000,-55.7451825268625
12528000,-56.932948571528
12532000,-57.8989676127504
12536000,-57.6086733657159
12540000,-57.2060759535142
12544000,-57.4531564701401
12548000,-57.3371409337671
12552000,-57.7820907276375
12556000,-58.5751832651435
12560000,-58.7339254730312
12564000,-58.5630040948484
12568000,-58.1834378017325
12572000,-58.7041159641372
12576000,-59.6850951259605
12580000,-59.6171474669978
12584000,-59.0007008316852
12588000,-57.9650611549047
12592000,-57.8486739578006
12596000,-58.5658312049525
12600000,-58.8137914934624
12604000,-59.2145350860588
12608000,-59.098900568679
12612000,-59.4897445034864
12616000,-59.7509515746468
12620000,-59.3980131549292
12624000,-59.1973810931858
12628000,-58.62894323611
12632000,-58.7281625092895
12636000,-59.3799047121947
12640000,-59.5339073645075
12644000,-59.4606846664898
12648000,-59.0439479804711
12652000,-59.3982492571549
12656000,-60.1711827266178
12660000,-60.5712165058489
12664000,-60.0699442231587
12668000,-59.1781712247742
12672000,-59.3581783313307
12676000,-60.067107137748
12680000,-60.4769601441861
12684000,-60.4040582417595
12688000,-59.6960830434826
12692000,-59.870589865289
12696000,-60.5902612538609
12700000,-60.5402216723898
12704000,-60.3103650108347
12708000,-59.9066607284018
12712000,-60.2695633931083
12716000,-60.985073350103
12720000,-61.0638176747259
12724000,-61.0072239169363
12728000,-60.2051886598444
12732000,-60.2156843278034
12736000,-60.753334225014
12740000,-60.5164600441342
12744000,-60.5452499992201
12748000,-60.4358361917603
12752000,-60.9348618061346
12756000,-61.603846783804
12760000,-61.3645900235432
12764000,-61.1027488816845
12768000,-60.5431814430144
12772000,-60.6543417094695
12776000,-61.3177337279851
12780000,-61.5560236023832
12784000,-61.5955489706489
12788000,-61.4336589128138
12792000,-61.4362261950517
12796000,-61.906797953708
12800000,-61.7918692263448
12804000,-61.4182630012323
12808000,-61.0186255644857
12812000,-61.1824967042501
12816000,-61.8308380128333
12820000,-62.2418495362667
12824000,-62.1946962346018
12828000,-61.5839477123125
12832000,-61.4772081730283
12836000,-61.6496645343218
12840000,-61.4070486004904
12844000,-61.6544678812731
12848000,-61.3390158479122
12852000,-61.7739395233846
12856000,-62.5201148741182
12860000,-62.8047481575927
12864000,-62.5407200262993
12868000,-62.2092027863031
12872000,-62.2424002910386
12876000,-62.8293241107379
12880000,-62.8433568844615
12884000,-62.1732150650108
12888000,-61.8395390585639
12892000,-61.8713871161866
12896000,-62.3784539099933
12900000,-62.5657708117315
12904000,-62.6723394555683
12908000,-62.3646494449085
12912000,-62.2819082980373
12916000,-62.462891342
12920000,-62.4013752723337
12924000,-62.55522488915
12928000,-62.7630314279991
12932000,-62.8613783620831
12936000,-63.2029866913845
12940000,-62.914216501517
12944000,-62.4066881966441
12948000,-61.7235073192339
12952000,-61.5845053599352
12956000,-61.9552088594018
12960000,-62.6445862845378
12964000,-63.3209974980503
12968000,-63.2168347105572
12972000,-63.2251616403891
12976000,-63.6723257426174
12980000,-63.6527125802359
12984000,-63.0658134783199
12988000,-62.2110970332207
12992000,-62.1873877275649
12996000,-63.0663222174057
13000000,-63.2639672564791
13004000,-63.1819006308851
13008000,-62.5793941352562
13012000,-62.6018740865817
13016000,-63.1378231174237
13020000,-63.449303100654
13024000,-63.1099154380805
13028000,-62.5833693337244
13032000,-62.7417721780001
13036000,-63.3807955012207
13040000,-63.5645849845846
13044000,-63.3521945281761
13048000,-63.164101664069
13052000,-63.5494889153299
13056000,-63.8922822923233
13060000,-63.8685100817352
13064000,-63.6903481235842
13068000,-63.3731446229592
13072000,-63.5745710318891
13076000,-64.0300715321978
13080000,-64.4250357410326
13084000,-64.3252806933117
13088000,-64.0241207395442
13092000,-63.8099663654996
13096000,-64.0035777316199
13100000,-63.9511782279865
13104000,-63.6426042008558
13108000,-63.3289778218996
13112000,-63.2163557356511
13116000,-63.8489743155113
13120000,-64.0834383000169
13124000,-63.9861125716769
13128000,-63.6090835888814
13132000,-63.8163251534645
13136000,-64.3652550178186
13140000,-64.4336977505445
13144000,-64.3437054575229
13148000,-63.7900292023071
13152000,-63.6627651290921
13156000,-64.3048266827553
13160000,-65.0544896777244
13164000,-65.0434288636662
13168000,-64.8299739940094
13172000,-64.7942662213879
13176000,-64.492932697555
13180000,-64.1658339443943
13184000,-64.1211057119552
13188000,-64.3811866238851
13192000,-64.2839964938579
13196000,-64.1869974263726
13200000,-64.0573909675177
13204000,-64.0701250808386
13208000,-63.9172948247167
13212000,-64.1572545556591
13216000,-64.6238611319812
13220000,-64.5414745134695
13224000,-64.3689568274348
13228000,-63.9997326960879
13232000,-64.0067355962925
13236000,-64.4528327234978
13240000,-64.5664947267392
13244000,-64.528440026256
13248000,-64.122795528354
13252000,-63.90304311467
13256000,-64.3908525028766
13260000,-64.7235912278939
13264000,-64.4684560181245
13268000,-64.0270932639103
13272000,-63.9475923687103
13276000,-64.2317742276444
13280000,-64.0454377564736
13284000,-63.7340775194892
13288000,-63.8728102832587
13292000,-64.1907199398092
13296000,-64.6876394424485
13300000,-64.604905735546
13304000,-63.8211739349543
13308000,-62.9111574764187
13312000,-62.8968386611964
13316000,-63.7256085484926
13320000,-64.628893324941
13324000,-65.1009791481185
13328000,-64.7773450685242
13332000,-64.099320259014
13336000,-63.1711030096881
13340000,-62.8764311020313
13344000,-63.7016054686739
13348000,-64.9075807282607
13352000,-64.9470075006418
13356000,-64.086624123348
13360000,-63.7833073886951
13364000,-64.0520783992012
13368000,-64.5526326644835
13372000,-64.9786119037117
13376000,-64.904838577204
13380000,-64.8641802568477
13384000,-64.9155596844134
13388000,-64.8054956659963
13392000,-64.7290299229788
13396000,-64.775768752783
13400000,-64.7171030960343
13404000,-64.656169765054
13408000,-64.6972129262166
13412000,-64.9489635494055
13416000,-65.1511499385937
13420000,-65.0255925937124
13424000,-65.0298793504369
13428000,-65.0973243739122
13432000,-65.3330857819238
13436000,-65.8193399819171
13440000,-66.1470102935772
13444000,-66.3354270948825
13448000,-66.3021586361981
13452000,-65.5289391285696
13456000,-64.4791649170542
13460000,-63.9283028745877
13464000,-63.6688267099982
13468000,-63.5816370829584
13472000,-64.0980506107638
13476000,-65.3008019008208
13480000,-66.6968376668369
13484000,-66.7956480986113
13488000,-66.1222920887607
13492000,-65.2716136020022
13496000,-64.1649912035161
13500000,-63.3289415979254
13504000,-63.372826086153
13508000,-63.7220232681347
13512000,-64.1704435422912
13516000,-64.9309560374369
13520000,-65.5449976684264
13524000,-65.1112607275851
13528000,-64.8277425353218
13532000,-64.8622364862733
13536000,-65.5679497803466
13540000,-65.8211753639303
13544000,-64.4693033071937
13548000,-62.9603330839523
13552000,-62.829652665586
13556000,-63.7878232122575
13560000,-64.4014711381033
13564000,-64.4678653549668
13568000,-64.0512196894803
13572000,-64.1580724096781
13576000,-65.1312776995913
13580000,-65.9806371066466
13584000,-65.5829338261639
13588000,-64.6467064571652
13592000,-64.3630759737111
13596000,-65.4631174529244
13600000,-66.0793536574018
13604000,-65.7995918808791
13608000,-65.3791082781803
13612000,-65.5328588736209
13616000,-66.1234338387313
13620000,-66.6852135080982
13624000,-66.6147752791941
13628000,-66.165602133256
13632000,-65.9371486872362
13636000,-65.9659374038574
13640000,-66.1036829066784
13644000,-65.6321407852884
13648000,-64.8528334946456
13652000,-64.5176237516067
13656000,-64.6796140087507
13660000,-65.1601462592314
13664000,-65.992193741849
13668000,-66.0569627602746
13672000,-66.1604454447826
13676000,-66.2569203644607
13680000,-66.2520192222403
13684000,-65.7889386379234
13688000,-65.3949067349128
13692000,-65.4185030673349
13696000,-65.4684613113085
13700000,-65.52931295084
13704000,-65.4231104350171
13708000,-64.7480499767499
13712000,-64.4443310603972
13716000,-64.9537317662088
13720000,-64.6956863114461
13724000,-63.5866029831684
13728000,-62.1026505745734
13732000,-60.6129241371313
13736000,-58.5846118391423
13740000,-56.8557190223088
13744000,-54.5785695904421
13748000,-52.7330640881028
13752000,-52.2782575975546
13756000,-53.2026969886525
13760000,-54.2284944720688
13764000,-55.2262782884581
13768000,-54.8096596673902
13772000,-54.7330672852489
13776000,-56.3239533581048
13780000,-59.6667824212819
13784000,-63.2644893060797
13788000,-65.1621977438986
13792000,-64.8960899839633
13796000,-63.8618698079636
13800000,-63.1813759865196
13804000,-63.2675323359577
13808000,-63.9201439207067
13812000,-64.323142010086
13816000,-65.2453064838203
13820000,-65.9875198219842
13824000,-66.0820044562629
13828000,-65.8143229215753
13832000,-66.0341889722529
13836000,-66.503831317695
13840000,-66.9057045528616
13844000,-66.8925571876216
13848000,-66.6136468622227
13852000,-66.3229012641295
13856000,-65.9838912527031
13860000,-65.7801047554196
13864000,-66.1065188298984
13868000,-66.1828893208953
13872000,-65.6907712876148
13876000,-64.1403968372081
13880000,-63.37457162404
13884000,-63.9213561868431
13888000,-65.1342104425373
13892000,-66.1559566777479
13896000,-66.9092912928744
13900000,-67.0819642241477
13904000,-66.1614707827947
13908000,-65.28074056762
13912000,-65.1702806391125
13916000,-65.7788019785393
13920000,-66.8430872837402
13924000,-67.338724091877
13928000,-67.4807707807944
13932000,-67.3895416437881
13936000,-67.4272547159799
13940000,-67.2972499901189
13944000,-66.929543689483
13948000,-66.2584900607529
13952000,-65.697291051612
13956000,-65.1694022138634
13960000,-64.8790237163598
13964000,-65.3837697609724
13968000,-66.677363466841
13972000,-67.6590432738645
13976000,-67.729450296948
13980000,-67.6122573241713
13984000,-66.9894704095592
13988000,-66.4285381704713
13992000,-66.3246242216621
13996000,-66.8288451252573
14000000,-67.0562248086918
14004000,-67.0885615927663
14008000,-66.898306850516
14012000,-67.0166090619699
14016000,-67.1789482407478
14020000,-67.1713386524497
14024000,-67.035562095666
14028000,-66.676115768438
14032000,-66.4871784122915
14036000,-66.3915124458901
14040000,-66.3185314738593
14044000,-66.2808893885171
14048000,-66.3580439059161
14052000,-66.8255885631861
14056000,-67.3421575760624
14060000,-67.5288455535904
14064000,-67.3390251062769
14068000,-67.1120752228049
14072000,-67.0854631937736
14076000,-66.9083677047653
14080000,-66.7133812875951
14084000,-66.9632932884808
14088000,-66.7951644334793
14092000,-67.0480770489248
14096000,-67.4698936288927
14100000,-67.6854653814711
14104000,-67.599949754518
14108000,-67.3343842604886
14112000,-66.9392642948242
14116000,-67.0029605075275
14120000,-67.1914859269439
14124000,-67.1579277277998
14128000,-66.7891209048552
14132000,-66.3350754621237
14136000,-66.5916891192871
14140000,-66.5372609869294
14144000,-66.683666049894
14148000,-66.9379596244931
14152000,-66.4444840110297
14156000,-65.8047741995304
14160000,-65.5558712068471
14164000,-65.6139864472032
14168000,-66.0458789333161
14172000,-67.1203518032501
14176000,-67.7376362002949
14180000,-68.2888666855695
14184000,-67.7814268080517
14188000,-66.9724384670522
14192000,-66.6653919000828
14196000,-66.8383445185376
14200000,-67.2944198201881
14204000,-68.028377749871
14208000,-68.2007519984669
14212000,-68.0959972960701
14216000,-67.9411475027252
14220000,-67.7649236226655
14224000,-67.5728461374802
14228000,-67.7951840720658
14232000,-67.7831687678938
14236000,-67.6424118085812
14240000,-67.4951773021654
14244000,-67.609013850514
14248000,-67.8870067341816
14252000,-67.9295236730546
14256000,-67.5921823864492
14260000,-67.1841186752944
14264000,-67.17783249253
14268000,-67.7036617331523
14272000,-67.7708602741078
14276000,-67.8480194977241
14280000,-68.0931555808991
14284000,-68.1013617612856
14288000,-67.7353833742935
14292000,-67.5319881177209
14296000,-67.5709372957259
14300000,-67.6815804181803
14304000,-67.6318153366903
14308000,-67.1979724181466
14312000,-67.0772329738197
14316000,-67.1747307279281
14320000,-67.1342215047463
14324000,-66.9069411216332
14328000,-66.7818936720394
14332000,-67.1201020016265
14336000,-67.6686226481435
14340000,-67.6150510396405
14344000,-67.3330586812357
14348000,-67.0102640593739
14352000,-66.9845161446882
14356000,-67.5227120734315
14360000,-67.9595873314786
14364000,-67.9207772101784
14368000,-67.7095818780602
14372000,-67.6893145912382
14376000,-67.6694585582536
14380000,-67.7039863430863
14384000,-67.5726763147743
14388000,-67.4594106603798
14392000,-67.5429447739395
14396000,-67.8739498947311
14400000,-67.8788926651939
14404000,-67.5838452370096
14408000,-67.1104022387119
14412000,-66.9097515698483
14416000,-67.1981156897651
14420000,-67.0937482874915
14424000,-67.1031663106199
14428000,-67.2791428561435
14432000,-67.2746048846509
14436000,-67.2907320042286
14440000,-67.6944867520859
14444000,-68.2282831047809
14448000,-68.3369628029897
14452000,-67.9787611373377
14456000,-67.7417533314626
14460000,-67.8342489760134
14464000,-67.8396309716923
14468000,-67.9064019046869
14472000,-68.0502807115919
14476000,-67.8786598260591
14480000,-67.5609571626677
14484000,-67.2218850533973
14488000,-67.1153586672809
14492000,-67.5503225192538
14496000,-68.3384132092101
14500000,-68.6248899587915
14504000,-68.6931897601559
14508000,-68.3445733767985
14512000,-68.3923541911567
14516000,-68.3887627244281
14520000,-67.9052681542503
14524000,-67.6630191905778
14528000,-67.7423894730672
14532000,-67.9883431324535
14536000,-67.3904977418473
14540000,-66.9916433553591
14544000,-67.0919338005166
14548000,-67.0809241429261
14552000,-67.2760993432562
14556000,-67.6972910495278
14560000,-67.8951885500729
14564000,-67.4885895509332
14568000,-66.720058912111
14572000,-66.5149588329496
14576000,-67.2951911369034
14580000,-67.864448765001
14584000,-67.744350804313
14588000,-67.5929389100808
14592000,-67.5079826832876
14596000,-67.7572952252128
14600000,-67.893473746779
14604000,-68.1743200074156
14608000,-67.843173743742
14612000,-67.7993994712484
14616000,-67.8115900606398
14620000,-67.5780871824304
14624000,-67.7067820757021
14628000,-68.0665555517994
14632000,-68.5618181863034
14636000,-68.3708349463197
14640000,-67.9138918774715
14644000,-67.6021098809053
14648000,-67.7773753571003
14652000,-67.8644174130783
14656000,-67.8158152736052
14660000,-67.5194126313671
14664000,-67.2505477805784
14668000,-67.1795027516126
14672000,-67.5990240423615
14676000,-68.251253457119
14680000,-68.5114561420678
14684000,-68.9126263013877
14688000,-68.5253190218894
14692000,-67.8348468801519
14696000,-67.7433887080942
14700000,-68.0793834305805
14704000,-68.6320400063075
14708000,-68.8584904348604
14712000,-68.5738116348849
14716000,-67.9336898987015
14720000,-67.5528482913819
14724000,-67.4396201494077
14728000,-67.677897103718
14732000,-67.9635678636514
14736000,-68.1968108835104
14740000,-68.2938865038497
14744000,-68.2631298815867
14748000,-68.310409579831
14752000,-68.1307586638019
14756000,-68.1027164665238
14760000,-68.4429654768588
14764000,-68.5206358153526
14768000,-68.2904583180583
14772000,-68.106985331665
14776000,-68.3458218592479
14780000,-68.4869559947326
14784000,-68.4874809542671
14788000,-68.6144023399404
14792000,-68.4872103171009
14796000,-68.1593937626676
14800000,-67.796708557009
14804000,-67.6349683567934
14808000,-67.5823512734957
14812000,-67.7921025114804
14816000,-68.2928827173082
14820000,-68.6749164045674
14824000,-68.291659158979
14828000,-67.8377826339819
14832000,-67.6951792924738
14836000,-67.9447588046166
14840000,-68.0474227181996
14844000,-67.8749974767525
14848000,-68.1889421731525
14852000,-68.5638440474678
14856000,-68.7506440364299
14860000,-68.5040249014219
14864000,-68.2464779166425
14868000,-67.8286894541301
14872000,-68.0490388047782
14876000,-68.3334912153329
14880000,-68.5432895161617
14884000,-68.3351919547192
14888000,-68.0528765006441
14892000,-67.8792896157699
14896000,-67.9657288727894
14900000,-68.0562270221347
14904000,-68.2132499004597
14908000,-68.5366678074079
14912000,-68.8978404673805
14916000,-68.9193715468897
14920000,-68.7566245645204
14924000,-68.8144436101305
14928000,-68.430593933481
14932000,-68.1583611881566
14936000,-68.5303290593375
14940000,-68.8196323104244
14944000,-68.2681327671777
14948000,-67.7679338052349
14952000,-67.5715763112729
14956000,-68.4000717248083
14960000,-68.8560626292536
14964000,-69.1046321721126
14968000,-69.1784152285073
14972000,-69.170138466993
14976000,-69.0675504101867
14980000,-69.1157281295959
14984000,-68.8795759243978
14988000,-68.5687265958228
14992000,-68.4952560438902
14996000,-68.7272539275576
15000000,-68.8092888592351
15004000,-68.3455890213549
15008000,-67.738044328862
15012000,-67.487104862675
15016000,-67.6703586896829
15020000,-68.1263612766561
15024000,-68.3655531257021
15028000,-68.2898742693975
15032000,-68.2938079799115
15036000,-68.4439428962122
15040000,-68.7552911442472
15044000,-68.5108314283302
15048000,-68.0651060065209
15052000,-68.0214589411587
15056000,-68.3054069815715
15060000,-68.4603540307954
15064000,-68.2895718404502
15068000,-68.1783117278335
15072000,-68.2800913713978
15076000,-68.3105132842256
15080000,-68.4811121171008
15084000,-68.2455734123456
15088000,-68.0882984332231
15092000,-68.3697527273563
15096000,-68.7529323811142
15100000,-68.675721093591
15104000,-68.5112551727767
15108000,-68.4898337109785
15112000,-68.3493144097949
15116000,-68.5483335203951
15120000,-68.9749591508421
15124000,-68.9445199582128
15128000,-68.8866320306663
15132000,-68.8524347632541
15136000,-68.9550775068328
15140000,-68.9366092272343
15144000,-68.8281809537273
15148000,-68.2885480993011
15152000,-68.3226325542594
15156000,-68.4811077859351
15160000,-68.5777234769024
15164000,-68.2237481327371
15168000,-68.1383290044501
15172000,-68.4577590521715
15176000,-68.6075094480718
15180000,-68.5104903927241
15184000,-68.6008698672773
15188000,-68.536025466264
15192000,-68.8114537885641
15196000,-69.1277857760628
15200000,-68.9342523747655
15204000,-68.655697937433
15208000,-69.0637086552675
15212000,-69.40027307087
15216000,-69.4027359369631
15220000,-68.9709465535337
15224000,-68.31493822792
15228000,-68.1016510544789
15232000,-68.0790763190018
15236000,-68.237049008241
15240000,-68.4177801287597
15244000,-68.6128074664323
15248000,-68.6764880942228
15252000,-68.8968107590649
15256000,-68.8832061901421
15260000,-68.8348032348651
15264000,-68.7405475815958
15268000,-68.6290227435771
15272000,-68.5462596264569
15276000,-68.42135167333
15280000,-68.2991818788022
15284000,-68.491661859504
15288000,-68.9616951253472
15292000,-68.9790101052303
15296000,-68.5371671557255
15300000,-68.5375080520056
15304000,-68.2346431583689
15308000,-68.2480274328228
15312000,-68.4182117897774
15316000,-68.6814075384403
15320000,-68.6237898370256
15324000,-68.5863075285872
15328000,-68.5822311493475
15332000,-68.6390800689102
15336000,-68.6117554099012
15340000,-68.6572269841569
15344000,-68.7548617844704
15348000,-68.5613519044292
15352000,-68.7050125906635
15356000,-69.3432040576173
15360000,-69.4167500123057
15364000,-69.2438191599893
15368000,-68.8995561633017
15372000,-68.5519868586213
15376000,-68.7676315929673
15380000,-68.7324505045942
15384000,-68.1734233420637
15388000,-67.9962791285535
15392000,-68.3544534146796
15396000,-68.866194328601
15400000,-69.0688675227897
15404000,-68.9247819524493
15408000,-68.6727488054553
15412000,-68.4310826175094
15416000,-68.54991837655
15420000,-68.8218394415045
15424000,-68.5382610282196
15428000,-68.3039102282302
15432000,-68.536249911655
15436000,-68.8651602674715
15440000,-69.1538410081604
15444000,-69.1901469355231
15448000,-68.5171301202421
15452000,-68.23504179603
15456000,-68.6281832192653
15460000,-68.899931991574
15464000,-68.9102687725611
15468000,-68.7095961588323
15472000,-68.7192633021413
15476000,-68.9235288768506
15480000,-68.8481558836979
15484000,-69.0746009756525
15488000,-68.8641278066047
15492000,-68.5979198321299
15496000,-68.6967694131223
15500000,-68.3815818482563
15504000,-68.4055916485005
15508000,-68.698758833794
15512000,-68.6747652333935
15516000,-68.4307927099771
15520000,-67.6577393178719
15524000,-66.4576341078238
15528000,-65.5079759717181
15532000,-65.3993761247942
15536000,-66.3754188084381
15540000,-67.2612387652245
15544000,-67.7384056701385
15548000,-68.3829770850291
15552000,-68.8518872380887
15556000,-69.1616642109061
15560000,-69.1934008670539
15564000,-69.120202998395
15568000,-69.1122781558675
15572000,-68.4676225161503
15576000,-67.6587940784259
15580000,-67.62818692625
15584000,-67.9453093348408
15588000,-68.1390817484256
15592000,-68.0174036213044
15596000,-68.0633074822324
15600000,-67.9229616014057
15604000,-67.9649335699816
15608000,-68.4465790427491
15612000,-68.8915309636789
15616000,-69.422196624032
15620000,-69.5936179415896
15624000,-69.4146091815645
15628000,-69.145469779458
15632000,-68.8121686280279
15636000,-68.8093555558049
15640000,-68.9826378631342
15644000,-69.1770950949326
15648000,-69.4094124258475
15652000,-69.6159469969685
15656000,-69.5149750616965
15660000,-69.1997128419422
15664000,-69.1189144323539
15668000,-68.9976070472146
15672000,-68.9114641405379
15676000,-69.124427199298
15680000,-69.4615872698654
15684000,-69.3879162998064
15688000,-69.0515808383634
15692000,-68.9314988375218
15696000,-69.2334972954527
15700000,-69.6189144643958
15704000,-69.8528245960084
15708000,-70.1071529694673
15712000,-70.0461129264329
15716000,-69.8452849720045
15720000,-69.8209674741269
15724000,-69.6239766822881
15728000,-69.0696654205423
15732000,-68.7384687643134
15736000,-68.6960780675876
15740000,-68.4999453797451
15744000,-68.6859338415735
15748000,-68.7794180464976
15752000,-68.8612710242898
15756000,-69.3599468699089
15760000,-69.6898532726712
15764000,-69.5393249449576
15768000,-69.3008598881915
15772000,-69.3692069833125
15776000,-69.3304223758876
15780000,-69.383294029529
15784000,-69.1523238989022
15788000,-68.8432859221399
15792000,-68.7001801232968
15796000,-69.246314433466
15800000,-69.4538215548007
15804000,-69.3169340145438
15808000,-69.5326083728976
15812000,-69.6185544690726
15816000,-69.5036428403421
15820000,-69.3984920818145
15824000,-69.3938210133802
15828000,-69.2052532991789
15832000,-68.8546908001596
15836000,-68.6186609906275
15840000,-68.7373118045419
15844000,-69.0651967518761
15848000,-69.8268562972491
15852000,-69.6651749983908
15856000,-69.1330377796057
15860000,-69.0806755468753
15864000,-69.1946744897532
15868000,-69.2580631290891
15872000,-69.5172676952158
15876000,-69.3961228662351
15880000,-68.8646497257906
15884000,-68.4030151632183
15888000,-68.1427731332128
15892000,-67.9522460996153
15896000,-68.37332246087
15900000,-68.92341956257
15904000,-69.1407110763307
15908000,-69.3390412844918
15912000,-69.4840560698866
15916000,-69.6607066162984
15920000,-69.8139009968632
15924000,-69.6132179203485
15928000,-69.1040784078585
15932000,-68.8858473787524
15936000,-69.0703857800047
15940000,-68.950599799708
15944000,-68.9244251465605
15948000,-69.1027053527826
15952000,-69.1426106518697
15956000,-68.9701774949583
15960000,-69.1440126136922
15964000,-69.4085962109892
15968000,-69.3096771675521
15972000,-69.4357777002286
15976000,-69.5468431136104
15980000,-69.3928342311552
15984000,-69.4185821327969
15988000,-69.5175187651026
15992000,-69.7466922474474
15996000,-69.8551329068987
16000000,-69.5322482868259
