Trace
Swept SA
A.12.13,N9010A
513 B25 DP2 RTL ,01
Segment,0
Number of Points,1001
Sweep Time,0.02
Start Frequency,12000000
Stop Frequency,16000000
Average Count,0
Average Type,LogPower(Video)
RBW,10000
RBW Filter,Gaussian
RBW Filter BW,3dB
VBW,10000
Sweep Type,Swept
X Axis Scale,Lin
PreAmp State,Off
PreAmp Band,Low
Trigger Source,Free
Trigger Level,1.2
Trigger Slope,Positive
Trigger Delay,0
Phase Noise Optimization,Narrow
Swept If Gain,Low
FFT If Gain,Autorange
RF Coupling,AC
FFT Width,411900
Ext Ref,10000000
Input,RF
RF Calibrator,Off
Attenuation,30
Ref Level Offset,0
External Gain,0
Trace Type,Average
Detector,Sample
Trace Math,Off
Trace Math Oper1,Trace5
Trace Math Oper2,Trace6
Trace Math Offset,0
Trace Name,Trace1
X Axis Units,Hz
Y Axis Units,dBm
DATA
12000000,-20.6172225985841
12004000,-18.3388161826975
12008000,-16.2551693854216
12012000,-15.6135864099095
12016000,-13.8710077275865
12020000,-12.8514322811761
12024000,-13.5116261435752
12028000,-13.1760249075825
12032000,-13.4200359997907
12036000,-15.5721084714755
12040000,-18.471539411421
12044000,-20.4960252004456
12048000,-23.6606732910559
12052000,-26.7276848934476
12056000,-29.5827879940726
12060000,-33.5376428665985
12064000,-36.3063643647346
12068000,-36.3160169899929
12072000,-35.3263823647114
12076000,-33.314103688138
12080000,-32.3512603684806
12084000,-33.1886187806736
12088000,-35.8603306985284
12092000,-37.8022168441494
12096000,-37.4248664559834
12100000,-36.7442827629031
12104000,-37.763795476646
12108000,-40.7442110171071
12112000,-41.727181948537
12116000,-38.8441812969817
12120000,-33.8080326023349
12124000,-29.462714383221
12128000,-26.9049111910087
12132000,-26.5747649315295
12136000,-28.2937054776919
12140000,-28.974132154147
12144000,-30.1059207781533
12148000,-32.9761990910183
12152000,-36.9277859369032
12156000,-39.8497000923259
12160000,-41.3894323574714
12164000,-43.1405776082176
12168000,-44.6448336302598
12172000,-43.1921125192479
12176000,-40.7344842161364
12180000,-39.4492822394313
12184000,-40.0485398107514
12188000,-42.1611357523811
12192000,-43.6747122751427
12196000,-46.0353029316776
12200000,-48.9047028969414
12204000,-49.7471662274345
12208000,-49.0590768456587
12212000,-49.1986602777284
12216000,-49.7644821470797
12220000,-49.0269856145806
12224000,-46.6621591463351
12228000,-44.8198770976807
12232000,-44.7110451092643
12236000,-46.60561957697
12240000,-48.6832527833015
12244000,-50.1668567500687
12248000,-51.1662860868262
12252000,-51.7359732675231
12256000,-51.5948056266123
12260000,-51.1327693104045
12264000,-52.1305745031178
12268000,-53.5874865321074
12272000,-52.2834739798466
12276000,-49.6652755125596
12280000,-48.2456027685733
12284000,-48.9449378243254
12288000,-50.6857535973148
12292000,-51.9518131267058
12296000,-52.1833170115579
12300000,-51.8522960574169
12304000,-52.903345017857
12308000,-54.5584629284683
12312000,-54.9840763230188
12316000,-53.7963851101238
12320000,-52.720161961076
12324000,-51.9242248839341
12328000,-50.7724516142614
12332000,-50.7983556526727
12336000,-51.9816436240146
12340000,-52.4052221206854
12344000,-53.5647456131483
12348000,-54.2393717076544
12352000,-54.5726536988941
12356000,-54.1233321498601
12360000,-53.2798470115061
12364000,-53.6682778127226
12368000,-53.9881074085093
12372000,-54.3508064981215
12376000,-54.839848125806
12380000,-54.7826821887585
12384000,-55.7488061132857
12388000,-56.6454287731582
12392000,-56.0333182304673
12396000,-53.9355439817507
12400000,-52.8116302647861
12404000,-53.4989040319529
12408000,-54.7315374471738
12412000,-55.265255896826
12416000,-55.1751612949508
12420000,-54.8441164311174
12424000,-55.2552718296502
12428000,-55.2473639432019
12432000,-55.519152647534
12436000,-56.1030010977022
12440000,-55.9850093536135
12444000,-56.4744342353296
12448000,-56.4116398257704
12452000,-56.6050269801335
12456000,-56.5906077974672
12460000,-56.2171848250857
12464000,-56.3321289928939
12468000,-56.0667438256053
12472000,-56.23671680499
12476000,-56.7031067155401
12480000,-56.3677168999877
12484000,-56.8188734589457
12488000,-56.8495051466892
12492000,-56.8632884872606
12496000,-56.54153828788
12500000,-56.0371116401555
12504000,-56.5624000227073
12508000,-56.9167935628665
12512000,-57.4214797443864
12516000,-57.3187730686307
12520000,-56.7976106130815
12524000,-57.4558462072843
12528000,-58.1377518516762
12532000,-58.308943664936
12536000,-58.1295545620882
12540000,-57.6358657937197
12544000,-57.4118982191752
12548000,-57.110557120417
12552000,-57.4217341714614
12556000,-58.0086850200645
12560000,-57.6626147621695
12564000,-57.9512666512819
12568000,-58.2203446637981
12572000,-58.7345632039415
12576000,-58.6042933761703
12580000,-58.15182918998
12584000,-57.9232945920682
12588000,-57.3651570644387
12592000,-57.5623047526309
12596000,-58.0044583454688
12600000,-57.9533241747408
12604000,-58.265366450127
12608000,-58.391873429407
12612000,-58.4531058487836
12616000,-58.5492216012139
12620000,-58.4451049533959
12624000,-58.7099340770676
12628000,-58.6127554096162
12632000,-59.0612694170415
12636000,-59.162447086777
12640000,-59.0893875298393
12644000,-59.3043800601366
12648000,-59.2694380247808
12652000,-59.295052215846
12656000,-59.3786506304245
12660000,-59.075591825454
12664000,-59.1877639569078
12668000,-59.3172696363612
12672000,-59.8096171434425
12676000,-60.1101567361297
12680000,-59.7143668955283
12684000,-59.5531712879568
12688000,-59.029839129941
12692000,-59.1166117160042
12696000,-59.6993074067523
12700000,-59.5783256551449
12704000,-59.7075752967572
12708000,-59.6206280156563
12712000,-60.0067211790367
12716000,-60.0317540396273
12720000,-59.9653932114937
12724000,-60.1393404419684
12728000,-60.1963545257383
12732000,-60.2924744551682
12736000,-60.220997724568
12740000,-59.9534951264674
12744000,-60.3257648204858
12748000,-60.5736883278029
12752000,-60.9717405005884
12756000,-60.7682440895203
12760000,-60.3111063502307
12764000,-60.3270888123944
12768000,-60.1890279842827
12772000,-60.2273681427252
12776000,-60.6566045216196
12780000,-61.0032948499137
12784000,-61.2063811108269
12788000,-60.8541005994042
12792000,-60.6941064489943
12796000,-60.7824424990569
12800000,-60.799113529231
12804000,-61.1451213400207
12808000,-61.5765960277852
12812000,-61.7157871104143
12816000,-61.225059505092
12820000,-60.6750826696553
12824000,-61.3088769437077
12828000,-62.2257378636745
12832000,-61.9427236547688
12836000,-60.3285133368222
12840000,-59.1380336422985
12844000,-59.3825346330635
12848000,-59.9706433965997
12852000,-60.7208463982692
12856000,-62.2272836231909
12860000,-62.6588670145379
12864000,-60.946631987393
12868000,-58.2517886252168
12872000,-54.3629493828139
12876000,-51.1958723613987
12880000,-49.7625197413352
12884000,-49.5226158470588
12888000,-48.6593869781596
12892000,-48.8886246884939
12896000,-51.0145681992002
12900000,-54.8908422173897
12904000,-58.1961537498827
12908000,-58.9361299150008
12912000,-59.6599366356421
12916000,-61.4048714002517
12920000,-62.7374394394182
12924000,-61.5975764494882
12928000,-59.9320880273598
12932000,-59.4443973952811
12936000,-59.2354577636582
12940000,-59.0820804811718
12944000,-60.0899082455992
12948000,-61.5162924938747
12952000,-62.2868006214918
12956000,-62.5271499076365
12960000,-62.4146559238501
12964000,-62.4155540900592
12968000,-62.6996336037887
12972000,-63.0641182440901
12976000,-62.7210454276005
12980000,-60.3977402535633
12984000,-57.3525563986179
12988000,-55.2131929990544
12992000,-55.0061852413217
12996000,-56.0186856772084
13000000,-56.602746781364
13004000,-56.828458764761
13008000,-56.2847922706932
13012000,-56.6118462660474
13016000,-58.5212104127825
13020000,-60.5856250351969
13024000,-61.1992247177312
13028000,-60.7472356439743
13032000,-60.8706580766809
13036000,-61.4474510159807
13040000,-61.942942345562
13044000,-62.6932179063749
13048000,-63.4167584268688
13052000,-63.66248255522
13056000,-63.5783989297571
13060000,-63.0041225506441
13064000,-62.4710568259999
13068000,-61.9875858655514
13072000,-62.1099680117912
13076000,-62.3869539746029
13080000,-62.631035430881
13084000,-63.4193173423856
13088000,-64.4847456392998
13092000,-64.6235823991174
13096000,-64.35983758443
13100000,-63.9336789197776
13104000,-63.0963101616511
13108000,-62.3273174651433
13112000,-62.2347528335433
13116000,-62.261336353065
13120000,-62.2210389982323
13124000,-62.6092480928775
13128000,-62.8346732037461
13132000,-63.14433715621
13136000,-63.6142421223407
13140000,-64.1122325313746
13144000,-64.3827247960397
13148000,-64.4970335960212
13152000,-64.5485640938059
13156000,-63.8626799359863
13160000,-63.1807090561343
13164000,-63.2929035220835
13168000,-63.5896346497032
13172000,-63.9134834048981
13176000,-64.0699428860885
13180000,-63.9135120985232
13184000,-64.3796579636229
13188000,-64.5232249094042
13192000,-64.1828116873971
13196000,-63.7184543095955
13200000,-63.0823791845581
13204000,-63.28091990335
13208000,-63.6604612951055
13212000,-63.9998579484113
13216000,-63.9101722297129
13220000,-63.8000638496735
13224000,-63.7841408774929
13228000,-63.7868214041002
13232000,-64.0426572822116
13236000,-64.1712223565396
13240000,-64.1203264912052
13244000,-63.9992370592457
13248000,-63.7192936039414
13252000,-63.802728610131
13256000,-64.0289127657426
13260000,-64.3266832556448
13264000,-64.4983821538263
13268000,-64.5338672073951
13272000,-64.5482930549829
13276000,-64.0803598502664
13280000,-63.7582198043498
13284000,-64.1048616751789
13288000,-64.2304256243627
13292000,-64.3364472138098
13296000,-64.2469463789605
13300000,-63.6681010996373
13304000,-63.3550152028525
13308000,-63.0177552310244
13312000,-62.9430911453568
13316000,-62.8382631393941
13320000,-62.7454733202052
13324000,-63.5259090273685
13328000,-64.7770152656712
13332000,-64.8869310291226
13336000,-63.7831391660015
13340000,-63.1244485815857
13344000,-63.5468929532106
13348000,-64.9784315659268
13352000,-65.2207241656238
13356000,-64.0687902276685
13360000,-63.187047347137
13364000,-63.5935142892767
13368000,-64.5596483882237
13372000,-65.2145237767482
13376000,-65.3680939721652
13380000,-65.0234093288609
13384000,-64.4924763826269
13388000,-64.0163058557429
13392000,-64.1044682447039
13396000,-64.372344359717
13400000,-64.3103452454102
13404000,-64.819330489569
13408000,-65.2335413487646
13412000,-65.2004908785878
13416000,-64.6529696413762
13420000,-64.2391625448502
13424000,-64.348592706494
13428000,-64.6206760068297
13432000,-65.1139684862102
13436000,-65.5405021584205
13440000,-65.9593159052532
13444000,-66.2948452236354
13448000,-66.570939272788
13452000,-66.1891539739087
13456000,-65.1606726085581
13460000,-64.011609360381
13464000,-63.2125766570577
13468000,-62.6634275386008
13472000,-62.9550598969715
13476000,-64.2501296020776
13480000,-65.36742468313
13484000,-65.7698622257162
13488000,-65.5654371744109
13492000,-64.9636591962324
13496000,-63.3830048728912
13500000,-62.3772594522244
13504000,-62.6710777410556
13508000,-63.7758486580358
13512000,-64.6895414247366
13516000,-65.0617093829764
13520000,-64.8994707582142
13524000,-64.6546291836999
13528000,-64.3319436142428
13532000,-64.6671015277536
13536000,-65.5892764570936
13540000,-66.0970379007012
13544000,-65.3495892037981
13548000,-64.1853948805845
13552000,-63.7104210335176
13556000,-63.7843562830052
13560000,-63.8216634992901
13564000,-63.5183635372727
13568000,-63.2491457603864
13572000,-63.6577729081281
13576000,-64.7696614054091
13580000,-65.6142774213564
13584000,-65.1468963090181
13588000,-64.2078783168017
13592000,-64.2858301657971
13596000,-65.2867609549132
13600000,-66.213727187742
13604000,-65.7341577814357
13608000,-64.4893221871882
13612000,-64.3370406078434
13616000,-64.5750021671922
13620000,-64.5168995429651
13624000,-65.2549242731559
13628000,-66.4546669145682
13632000,-66.6214205470965
13636000,-66.531673105824
13640000,-66.1042908983901
13644000,-65.9585039743471
13648000,-66.3880665314592
13652000,-66.2434008885807
13656000,-65.5621246373516
13660000,-64.9422854977662
13664000,-65.1376721016906
13668000,-65.6694692074531
13672000,-66.0495012219315
13676000,-66.025665331887
13680000,-65.9686835109069
13684000,-66.0786324263038
13688000,-66.3570328401214
13692000,-66.6494644488316
13696000,-66.73062663416
13700000,-66.2023104211849
13704000,-65.0986159368447
13708000,-63.9063628329361
13712000,-63.7340947754422
13716000,-64.8835909887435
13720000,-65.9218456455796
13724000,-66.0194789667759
13728000,-65.7741739404697
13732000,-64.5422110371103
13736000,-62.8203635771783
13740000,-61.706957308009
13744000,-61.4278233252657
13748000,-61.4900332833671
13752000,-61.9874872163229
13756000,-63.5041322507453
13760000,-63.0841151993519
13764000,-60.6868646264988
13768000,-58.6043274314281
13772000,-58.2797411335356
13776000,-60.0769311784177
13780000,-63.1974539650345
13784000,-65.6602375914171
13788000,-66.3330470942049
13792000,-65.3761054969439
13796000,-63.5066691381795
13800000,-62.3263331263517
13804000,-62.7577995871135
13808000,-64.1319606042659
13812000,-65.3656181387587
13816000,-66.0048734039691
13820000,-66.4661939848345
13824000,-66.2409642570561
13828000,-65.6865742476925
13832000,-65.4945106043513
13836000,-65.8176982000917
13840000,-65.9959128909752
13844000,-66.0983648539843
13848000,-66.3992025884274
13852000,-66.2112515385641
13856000,-65.5916925981327
13860000,-65.3112205418959
13864000,-65.8299596153677
13868000,-66.4511288403351
13872000,-65.7410645387882
13876000,-63.701622710326
13880000,-62.4920955327761
13884000,-62.8256761319888
13888000,-64.4390082707177
13892000,-65.8323230283883
13896000,-66.4582225482468
13900000,-66.2527271107055
13904000,-65.140105463405
13908000,-64.1831545109837
13912000,-64.2419105961162
13916000,-65.1068577200393
13920000,-65.8922572736129
13924000,-66.2738136707676
13928000,-66.3018955266896
13932000,-66.3129547524695
13936000,-66.3017425793665
13940000,-66.2433976404467
13944000,-66.8487530536014
13948000,-67.0394872854596
13952000,-66.5005922121278
13956000,-65.7194630706766
13960000,-65.1077072336016
13964000,-65.6423114807641
13968000,-66.8632359912089
13972000,-67.6682916626393
13976000,-67.6575918801508
13980000,-67.1558654891675
13984000,-66.5384597270891
13988000,-66.0992309439845
13992000,-66.0277945994023
13996000,-66.1288443721091
14000000,-66.5176999438785
14004000,-67.3496355048642
14008000,-67.9151375850689
14012000,-67.6227466223653
14016000,-67.1412267572864
14020000,-66.8523322159554
14024000,-66.6863991409214
14028000,-66.6322528549156
14032000,-66.2813953364137
14036000,-66.3259264159965
14040000,-66.3736428925266
14044000,-66.5242383541959
14048000,-66.99165111225
14052000,-66.7902937030321
14056000,-66.0851885961022
14060000,-65.7181850643421
14064000,-66.0236108866493
14068000,-66.681579587117
14072000,-67.154919625284
14076000,-66.8689890776672
14080000,-66.7420824990779
14084000,-67.1164118193133
14088000,-67.4636518387901
14092000,-67.5051339418041
14096000,-67.798413002165
14100000,-67.9032364677603
14104000,-67.1817309402639
14108000,-66.6824914242226
14112000,-67.0298404163213
14116000,-67.5207740324228
14120000,-67.6312760599593
14124000,-67.3718247893241
14128000,-67.0961488578476
14132000,-67.2293203756259
14136000,-67.0938850854112
14140000,-66.8563270202922
14144000,-66.8668431771628
14148000,-67.2323813136049
14152000,-66.8867508122403
14156000,-66.0121477136793
14160000,-65.3521791184645
14164000,-65.8483614855657
14168000,-66.5877546538173
14172000,-67.3776874267558
14176000,-67.459624028479
14180000,-67.2673860347067
14184000,-67.1885263723391
14188000,-66.9532574139556
14192000,-66.7513362176076
14196000,-66.6010441447291
14200000,-66.5709026324908
14204000,-66.8627513873753
14208000,-67.3628803538274
14212000,-67.647263626432
14216000,-68.0225173148551
14220000,-68.1341715398346
14224000,-67.9025969165326
14228000,-67.8380442438168
14232000,-67.6214435997921
14236000,-67.0773868219742
14240000,-66.8315443434146
14244000,-66.6265196294055
14248000,-66.5720858468374
14252000,-67.1067421901739
14256000,-67.2510247713726
14260000,-67.4199880182103
14264000,-67.5377471998559
14268000,-67.597276171625
14272000,-67.6303972350013
14276000,-67.5529640715586
14280000,-67.5155514386882
14284000,-67.2486239729579
14288000,-67.2567449529919
14292000,-67.4573454694499
14296000,-67.7476951538938
14300000,-67.6693896472845
14304000,-67.6521841956697
14308000,-67.7400987355712
14312000,-67.6990826757586
14316000,-67.6003542436813
14320000,-67.723190635178
14324000,-67.3226498260378
14328000,-67.2527974192443
14332000,-67.3491976892839
14336000,-67.4329561409296
14340000,-67.6498472930929
14344000,-67.6379720190537
14348000,-67.3926871141712
14352000,-67.2581517005763
14356000,-67.3101586221248
14360000,-67.3746848021644
14364000,-67.6843367613232
14368000,-67.3999601603511
14372000,-67.0930906285388
14376000,-67.0787274147624
14380000,-67.0082674322288
14384000,-67.365564926582
14388000,-67.8365843472958
14392000,-68.2468345021926
14396000,-68.3682818457188
14400000,-67.9665380541172
14404000,-67.5528568460126
14408000,-67.724264119275
14412000,-67.8775583391183
14416000,-67.653644206362
14420000,-67.4896938024412
14424000,-67.550466388355
14428000,-67.8159537022393
14432000,-67.7806334529226
14436000,-67.5331958267261
14440000,-67.3022842818561
14444000,-67.2455602509644
14448000,-67.3913323815888
14452000,-67.7621769795677
14456000,-68.279968486922
14460000,-68.1544009661959
14464000,-67.9444579633181
14468000,-67.8566761769656
14472000,-67.7744358048743
14476000,-68.0071103109107
14480000,-68.0498997442814
14484000,-67.9680738982339
14488000,-68.0066012668593
14492000,-68.0288918391133
14496000,-67.9147384424005
14500000,-67.8051950700527
14504000,-67.7675785406577
14508000,-67.7346405352074
14512000,-67.7642088258978
14516000,-67.5406806674568
14520000,-67.3098356287804
14524000,-67.2861238131309
14528000,-67.4567329735348
14532000,-66.8545332259936
14536000,-65.7078103988601
14540000,-65.1859443158058
14544000,-65.7950440846984
14548000,-66.9077551857091
14552000,-67.4155251597431
14556000,-67.7821931063934
14560000,-67.4351695428361
14564000,-66.1507470139348
14568000,-64.9480268570346
14572000,-64.7371986284808
14576000,-65.6207622768518
14580000,-66.9437872198683
14584000,-67.5610062971843
14588000,-67.6118526571134
14592000,-67.76189493486
14596000,-67.8315463397586
14600000,-67.9367113444211
14604000,-67.4388573188268
14608000,-67.1553370955458
14612000,-67.2088836198041
14616000,-67.4958541999693
14620000,-68.136124622393
14624000,-68.4602036012644
14628000,-67.9015319013401
14632000,-67.7115232283321
14636000,-67.6681514590137
14640000,-67.2810862347374
14644000,-67.4795800763554
14648000,-67.7799308777207
14652000,-67.8650332367807
14656000,-67.6290865265667
14660000,-67.5111106167832
14664000,-67.388184169133
14668000,-67.2549055913816
14672000,-67.3852091414595
14676000,-68.026216096082
14680000,-68.2944003982021
14684000,-67.4593915988255
14688000,-66.6472676403998
14692000,-66.9658625037399
14696000,-67.9179063453996
14700000,-68.4247534779452
14704000,-68.2627084872614
14708000,-67.9624354837741
14712000,-68.025451069971
14716000,-68.2761017313766
14720000,-68.4121646237402
14724000,-68.5133288845318
14728000,-68.1024703490106
14732000,-67.9256817990732
14736000,-67.8374997780679
14740000,-67.6641753540094
14744000,-67.791392307521
14748000,-68.100545015709
14752000,-68.2592964629536
14756000,-68.1925296021233
14760000,-68.4238048438158
14764000,-68.4089670442609
14768000,-68.7038068938307
14772000,-68.9058437105287
14776000,-68.8311827737591
14780000,-68.6023997499448
14784000,-68.4931312545678
14788000,-68.4494213350523
14792000,-68.115430280987
14796000,-68.1918735050137
14800000,-68.3746981145728
14804000,-67.846481344519
14808000,-67.6815695852754
14812000,-67.7219494733182
14816000,-67.8124724322304
14820000,-68.1520589442791
14824000,-68.4080402857569
14828000,-68.0234899741474
14832000,-67.9905103256343
14836000,-68.4589000077502
14840000,-68.542931718118
14844000,-68.2531683501782
14848000,-68.0636861886665
14852000,-68.0758348908208
14856000,-68.0254127794293
14860000,-68.0877011723568
14864000,-68.0692773340647
14868000,-68.2223681451429
14872000,-68.4512305561879
14876000,-68.8101386662594
14880000,-68.840008980356
14884000,-68.8638486996426
14888000,-68.5148913509104
14892000,-68.3788305712052
14896000,-68.3813859324562
14900000,-68.1329301139677
14904000,-67.931219132034
14908000,-67.7922401396293
14912000,-68.0637860499452
14916000,-68.2401849439674
14920000,-68.1534561666077
14924000,-68.1530227400104
14928000,-68.1606855745997
14932000,-68.4024247810295
14936000,-68.130798836078
14940000,-67.8002724536361
14944000,-67.7998622647744
14948000,-67.8272647798309
14952000,-67.8482592828566
14956000,-67.9869004318417
14960000,-68.4547230705669
14964000,-68.7773212426466
14968000,-68.7463921657024
14972000,-68.9910915558836
14976000,-69.2063448320712
14980000,-68.9130570095215
14984000,-68.8676357170664
14988000,-68.712615649165
14992000,-68.6207847639509
14996000,-68.3789492019522
15000000,-68.4711016206175
15004000,-68.5253350452396
15008000,-68.5670897404215
15012000,-68.7116134693602
15016000,-69.1611034575029
15020000,-69.1423776632414
15024000,-68.9972667052176
15028000,-68.7941340102586
15032000,-68.4988342666487
15036000,-68.1463294834907
15040000,-68.1086462523302
15044000,-68.53635379344
15048000,-68.7953652574664
15052000,-68.8729615163332
15056000,-69.2333845231488
15060000,-69.4289209544381
15064000,-68.8333052241004
15068000,-68.1400896731492
15072000,-68.1711275019473
15076000,-68.6533330284131
15080000,-69.023601863373
15084000,-68.8880426969391
15088000,-68.7957701089145
15092000,-68.7278154808805
15096000,-68.6914396624893
15100000,-68.4520663671163
15104000,-68.6922830815174
15108000,-68.8064534277164
15112000,-68.5200179303097
15116000,-68.4852350080209
15120000,-68.749773240722
15124000,-69.0209087423173
15128000,-68.7020451256477
15132000,-68.5892659719421
15136000,-68.5661928576912
15140000,-68.4527257691521
15144000,-68.5121281792273
15148000,-68.6978548456471
15152000,-68.4971605335002
15156000,-68.4199306242798
15160000,-68.4765392361207
15164000,-68.5465989440079
15168000,-68.3741659711762
15172000,-68.242646995759
15176000,-68.3801146194072
15180000,-68.3179490003762
15184000,-68.4465600238959
15188000,-68.7460132613572
15192000,-68.4937406318601
15196000,-68.0188548060433
15200000,-67.6591099576865
15204000,-67.7334425712392
15208000,-68.1480972626508
15212000,-68.4516160259804
15216000,-68.2183359168831
15220000,-68.2815553746486
15224000,-68.5567211684257
15228000,-68.6809268992599
15232000,-68.519324569649
15236000,-68.350690618418
15240000,-68.374706501654
15244000,-68.4145436449804
15248000,-68.6186797093732
15252000,-68.7600893657259
15256000,-68.914385305853
15260000,-68.8974112091461
15264000,-68.6285336429927
15268000,-68.5252557025087
15272000,-68.8266744731016
15276000,-69.2976513625203
15280000,-69.1714192541646
15284000,-69.2658189121196
15288000,-69.3852809020769
15292000,-69.2922620114757
15296000,-69.1274547794553
15300000,-68.9778690487266
15304000,-68.8615155350978
15308000,-68.5391121416156
15312000,-68.4507283848233
15316000,-68.216860672608
15320000,-68.1970461438153
15324000,-68.3091321429083
15328000,-68.9261505455812
15332000,-69.5195538299012
15336000,-69.1055778701955
15340000,-68.6685534495
15344000,-68.5078351851757
15348000,-68.3044854818324
15352000,-68.521862979202
15356000,-68.992402235692
15360000,-69.3943448453475
15364000,-69.7842874674392
15368000,-69.9255220183542
15372000,-69.5962191782921
15376000,-69.0529254410298
15380000,-68.9071543459496
15384000,-68.9626724523813
15388000,-68.6754405528802
15392000,-68.4327387607627
15396000,-68.221422877631
15400000,-67.9947443293867
15404000,-68.0549776377581
15408000,-68.486363268315
15412000,-68.7280344892216
15416000,-68.7349925919551
15420000,-68.7460621605715
15424000,-68.8910731196331
15428000,-69.2535362349552
15432000,-69.5899758342227
15436000,-69.5401443506706
15440000,-69.1378072149123
15444000,-68.7876835701353
15448000,-68.708399372592
15452000,-68.5109225948475
15456000,-68.3341928635192
15460000,-68.4553321723227
15464000,-68.3343213667301
15468000,-68.5915623197484
15472000,-69.1045950440692
15476000,-69.2941847676372
15480000,-69.165301598302
15484000,-68.991158032331
15488000,-68.728751085606
15492000,-68.5112536179732
15496000,-68.1531359770627
15500000,-68.3809532684661
15504000,-68.9929167672992
15508000,-68.9407728320088
15512000,-68.645973854789
15516000,-68.1499870371221
15520000,-67.1070456689402
15524000,-65.6829316794642
15528000,-64.7746803609502
15532000,-64.8312200186535
15536000,-65.8372448400194
15540000,-66.8000093773439
15544000,-67.634071045231
15548000,-68.4471423645207
15552000,-69.1384638479258
15556000,-69.3754885569356
15560000,-69.5704892290405
15564000,-69.198168367454
15568000,-68.9702335173088
15572000,-68.8042792777477
15576000,-68.5042111361857
15580000,-68.2036512490529
15584000,-68.3434647222438
15588000,-69.0172175736939
15592000,-69.4412225028975
15596000,-68.6722184730293
15600000,-68.0628631291964
15604000,-68.0361134016819
15608000,-68.465158160594
15612000,-68.8799121174037
15616000,-69.0443885355553
15620000,-68.9323776699782
15624000,-69.0330067082745
15628000,-69.2533648062167
15632000,-69.244762895772
15636000,-68.8977494010922
15640000,-68.2658524003594
15644000,-67.9830394055978
15648000,-67.8720169289289
15652000,-68.3492207002029
15656000,-69.1690718119955
15660000,-69.2653157958346
15664000,-68.9360421609316
15668000,-69.0430362935222
15672000,-69.26333307517
15676000,-69.3188487584921
15680000,-69.1867139702882
15684000,-68.9850983082903
15688000,-68.4723907347101
15692000,-68.2040169967794
15696000,-68.2549732155603
15700000,-68.5432699550468
15704000,-68.5259593745537
15708000,-68.5930614154948
15712000,-68.6191400460574
15716000,-68.6967782958188
15720000,-69.0695382726962
15724000,-69.123650577605
15728000,-68.7282024486834
15732000,-68.8078275261645
15736000,-68.8843905278019
15740000,-68.806056847295
15744000,-68.6131229340018
15748000,-68.8886597370561
15752000,-69.1915215915277
15756000,-69.201096868975
15760000,-69.4168099309446
15764000,-69.4838965365706
15768000,-69.2246459213522
15772000,-69.1635899406306
15776000,-68.9638522534098
15780000,-69.1883476665314
15784000,-69.2834701979648
15788000,-69.2494962164651
15792000,-69.0818831956808
15796000,-69.0286823804462
15800000,-68.9263844291074
15804000,-69.0044939295735
15808000,-69.2753316652869
15812000,-69.2775458008393
15816000,-68.6573582454796
15820000,-68.6306901130973
15824000,-68.9764535381714
15828000,-69.1662945627763
15832000,-69.0747761189447
15836000,-68.8003440384595
15840000,-68.9162108651627
15844000,-69.4238846776698
15848000,-69.6419561969955
15852000,-69.8546780694382
15856000,-69.8341140193614
15860000,-69.5993907383187
15864000,-69.8741462986717
15868000,-70.16827373492
15872000,-70.3233132389761
15876000,-70.0942385885146
15880000,-69.571281684672
15884000,-69.0357121654056
15888000,-68.5227274612625
15892000,-68.4918410417968
15896000,-68.6696590503967
15900000,-69.3531242187536
15904000,-69.9370263259604
15908000,-69.9904058123922
15912000,-69.7068340111551
15916000,-69.1364790728655
15920000,-68.8248091172161
15924000,-68.9699320007203
15928000,-68.9579322780769
15932000,-68.9107939233256
15936000,-69.1545865758564
15940000,-69.2215697371145
15944000,-69.0761211961707
15948000,-68.9699166030462
15952000,-69.159877060161
15956000,-69.2920694590843
15960000,-69.3164415940799
15964000,-69.2328535536772
15968000,-69.4350373715758
15972000,-69.5070983344202
15976000,-69.3472433224684
15980000,-69.232350159652
15984000,-69.2511280153694
15988000,-69.1953688525264
15992000,-69.3728529688024
15996000,-69.7950416891274
16000000,-69.6434964956728
