Trace
Swept SA
A.12.13,N9010A
513 B25 DP2 RTL ,01
Segment,0
Number of Points,1001
Sweep Time,0.02
Start Frequency,12000000
Stop Frequency,16000000
Average Count,0
Average Type,LogPower(Video)
RBW,10000
RBW Filter,Gaussian
RBW Filter BW,3dB
VBW,10000
Sweep Type,Swept
X Axis Scale,Lin
PreAmp State,Off
PreAmp Band,Low
Trigger Source,Free
Trigger Level,1.2
Trigger Slope,Positive
Trigger Delay,0
Phase Noise Optimization,Narrow
Swept If Gain,Low
FFT If Gain,Autorange
RF Coupling,AC
FFT Width,411900
Ext Ref,10000000
Input,RF
RF Calibrator,Off
Attenuation,30
Ref Level Offset,0
External Gain,0
Trace Type,Average
Detector,Sample
Trace Math,Off
Trace Math Oper1,Trace5
Trace Math Oper2,Trace6
Trace Math Offset,0
Trace Name,Trace1
X Axis Units,Hz
Y Axis Units,dBm
DATA
12000000,-22.4017003848841
12004000,-24.4703639218179
12008000,-26.8981951370344
12012000,-24.476251283817
12016000,-21.6097921706736
12020000,-20.4012649705456
12024000,-20.8207474150479
12028000,-20.9122969028214
12032000,-21.4737725656843
12036000,-23.690728922538
12040000,-27.7718187064118
12044000,-32.2516205382125
12048000,-36.1516545450204
12052000,-38.7794360542711
12056000,-41.5420540086476
12060000,-45.7687086798368
12064000,-48.4187810737796
12068000,-48.0089686111368
12072000,-48.3798547594647
12076000,-49.8618071972285
12080000,-49.7938078040031
12084000,-50.7462272678422
12088000,-53.096987903241
12092000,-54.314393969922
12096000,-54.1514980609807
12100000,-53.8770279276459
12104000,-54.7288250179273
12108000,-56.4257523788361
12112000,-55.1356380624144
12116000,-49.2087279776463
12120000,-42.9491127957676
12124000,-38.2433855586489
12128000,-35.6543537143577
12132000,-35.3617937001491
12136000,-37.3318425114883
12140000,-38.6841852723839
12144000,-39.962659085326
12148000,-42.7720301761434
12152000,-47.5861099207212
12156000,-52.3083061086568
12160000,-54.9558545851297
12164000,-55.2293377967962
12168000,-54.4626031996298
12172000,-54.6540629723605
12176000,-55.3780507743576
12180000,-55.428873384117
12184000,-56.389929104749
12188000,-58.6997022168707
12192000,-61.2386450065598
12196000,-61.9715995040683
12200000,-61.9536162824985
12204000,-62.4231991667054
12208000,-63.6860287714799
12212000,-64.9416711116473
12216000,-65.9356972076536
12220000,-66.1550076494894
12224000,-65.2670733882154
12228000,-64.184094438391
12232000,-63.7308409573687
12236000,-64.0411839690953
12240000,-64.6984318165023
12244000,-64.9260970635055
12248000,-64.5980001775608
12252000,-64.9314360958089
12256000,-65.5889256659559
12260000,-65.7699145226488
12264000,-65.955893070568
12268000,-66.2703032448256
12272000,-66.4722782716056
12276000,-65.9203813626111
12280000,-65.5935442427824
12284000,-65.7116061177252
12288000,-66.1220309623169
12292000,-66.4910923847578
12296000,-66.3454562496528
12300000,-66.4506149494434
12304000,-66.6442440022877
12308000,-66.4960140446234
12312000,-66.3967286422888
12316000,-66.4637468773437
12320000,-66.5970109645036
12324000,-66.6337415148877
12328000,-66.9658564986934
12332000,-66.9646076210981
12336000,-66.4016145958537
12340000,-66.004137587652
12344000,-66.0154510093853
12348000,-66.5179782230965
12352000,-66.8665050759587
12356000,-67.0578718603824
12360000,-67.0611831713525
12364000,-66.8480033818774
12368000,-66.8921121459356
12372000,-67.0033822457724
12376000,-66.5365060014964
12380000,-65.9273499287934
12384000,-66.1358555788642
12388000,-66.5434788025062
12392000,-66.8814661147083
12396000,-66.791918858945
12400000,-67.20604666487
12404000,-67.1140918181728
12408000,-66.7515871721671
12412000,-66.7474348870992
12416000,-66.4954406935863
12420000,-66.6750196630659
12424000,-66.6705058691095
12428000,-66.691516438776
12432000,-66.7564380420312
12436000,-67.144203392655
12440000,-67.0472576833884
12444000,-66.9173543799117
12448000,-66.9394533602725
12452000,-66.8447637609059
12456000,-66.4943673197602
12460000,-66.4090875434503
12464000,-66.6658264753857
12468000,-67.2396546606751
12472000,-67.5775212699761
12476000,-67.2219454499431
12480000,-66.6272955048616
12484000,-66.2733700204898
12488000,-66.3225285124337
12492000,-66.6037156935418
12496000,-66.8930293568405
12500000,-67.0918968632146
12504000,-66.9753082876758
12508000,-67.0232406207647
12512000,-67.0026512287068
12516000,-66.8703799671908
12520000,-66.8669332028091
12524000,-66.8070870374969
12528000,-66.6066039097075
12532000,-66.4244112775261
12536000,-66.5404536493286
12540000,-66.7330209126989
12544000,-66.7465443972283
12548000,-66.9719889034688
12552000,-66.8631195538795
12556000,-67.0033639597054
12560000,-67.3955636720965
12564000,-67.6256155729856
12568000,-67.6227998988094
12572000,-67.2464080412281
12576000,-67.0003091449283
12580000,-66.8656338881199
12584000,-66.8635734419459
12588000,-67.1077229622902
12592000,-67.0383954580714
12596000,-66.8337580990143
12600000,-66.9796938821857
12604000,-67.0393008527066
12608000,-66.9314797747358
12612000,-67.0578621414215
12616000,-66.9015881822056
12620000,-66.8238196109537
12624000,-66.9521888566102
12628000,-67.1951605594763
12632000,-67.0680337529393
12636000,-67.124879030001
12640000,-67.2616766370483
12644000,-67.1492379201764
12648000,-66.8640882483821
12652000,-66.6379731668872
12656000,-66.8453534487389
12660000,-67.3355189465441
12664000,-67.4153562666791
12668000,-67.0248368104237
12672000,-66.8726520736229
12676000,-66.9083965997438
12680000,-66.8055425288062
12684000,-66.8052158798415
12688000,-66.8448712736939
12692000,-67.0106411696836
12696000,-67.0540720532074
12700000,-67.048393095374
12704000,-67.0333728032699
12708000,-67.0015424115458
12712000,-66.9179245686746
12716000,-67.0050934196136
12720000,-66.9714176092572
12724000,-66.9956720960259
12728000,-67.0142398171501
12732000,-67.3087604943456
12736000,-67.6673717673046
12740000,-67.3852416409413
12744000,-67.2251298475065
12748000,-67.266943669941
12752000,-67.4598509212082
12756000,-67.2879797551317
12760000,-66.7279065100594
12764000,-66.3838917385679
12768000,-66.442062105714
12772000,-66.8028813162557
12776000,-66.850139661132
12780000,-66.9576431005297
12784000,-67.1893258952271
12788000,-67.3259876075671
12792000,-67.2511507010929
12796000,-67.2034476579563
12800000,-67.3898780930611
12804000,-67.5733539637102
12808000,-67.2903714082945
12812000,-66.9430676265075
12816000,-66.941928037332
12820000,-66.9186260594581
12824000,-66.5896932598628
12828000,-66.7753529068522
12832000,-67.3384025797378
12836000,-67.3984609297389
12840000,-67.1445058336601
12844000,-67.3206396836176
12848000,-67.4482161258303
12852000,-67.3419918701133
12856000,-67.42712891211
12860000,-67.3464922289268
12864000,-66.5731005959763
12868000,-65.1269751069291
12872000,-62.4453674891865
12876000,-59.769168614047
12880000,-58.3504460332929
12884000,-57.842137289115
12888000,-57.4102148779524
12892000,-57.7051692676082
12896000,-59.5807053408303
12900000,-61.8431537159326
12904000,-63.217664101928
12908000,-64.2367606678431
12912000,-65.1145314262317
12916000,-65.8507677909697
12920000,-66.1181022838304
12924000,-66.3633685075581
12928000,-66.687375362125
12932000,-66.8703415899991
12936000,-66.9844440584701
12940000,-67.2661103110712
12944000,-67.5563352018537
12948000,-67.6804020759397
12952000,-67.6399219021524
12956000,-67.4953002395539
12960000,-67.4030940762686
12964000,-67.3813037072839
12968000,-67.6021742010933
12972000,-67.9361330609814
12976000,-67.705827163466
12980000,-66.8070404184687
12984000,-65.6621414570889
12988000,-64.6495652762344
12992000,-63.9892658328969
12996000,-63.5573775036926
13000000,-63.1242085483267
13004000,-63.3224873573461
13008000,-63.6764490978589
13012000,-64.5730450493583
13016000,-66.0810867823093
13020000,-67.318350260114
13024000,-67.4972355898891
13028000,-67.1306182757854
13032000,-67.2436049833354
13036000,-67.3295133560328
13040000,-67.2732808304569
13044000,-67.3878335105401
13048000,-67.4386665747225
13052000,-67.3641274358615
13056000,-67.38810032427
13060000,-67.7181871138941
13064000,-67.7095178035784
13068000,-67.4187905701439
13072000,-67.6238459286578
13076000,-67.7094030817313
13080000,-67.4327285123137
13084000,-67.0636919251495
13088000,-66.9555320866747
13092000,-67.158949286087
13096000,-66.866777061006
13100000,-66.6073334446382
13104000,-66.567895561327
13108000,-66.6090248114411
13112000,-66.9572815543375
13116000,-67.0634171228589
13120000,-67.3595071115893
13124000,-67.6857899327395
13128000,-67.8443261766359
13132000,-67.9979496017443
13136000,-67.8920485878501
13140000,-67.7808221268624
13144000,-67.8001362304236
13148000,-67.4427910130908
13152000,-66.9543358957547
13156000,-66.8122707328356
13160000,-66.6709063526105
13164000,-66.6339501293849
13168000,-66.3863566439106
13172000,-66.5925452655691
13176000,-67.3870485588271
13180000,-67.9307781424255
13184000,-67.8899899906567
13188000,-67.8345641311398
13192000,-67.7266101179067
13196000,-67.5921994680688
13200000,-67.3882678993069
13204000,-67.2717763542992
13208000,-67.2886085382009
13212000,-67.3107784988153
13216000,-67.5256140041956
13220000,-67.6093302269895
13224000,-67.580675446026
13228000,-67.3124044843889
13232000,-67.5848497614055
13236000,-67.9870707224418
13240000,-67.994145678439
13244000,-68.0211096243072
13248000,-67.7548249434367
13252000,-67.6028754973129
13256000,-67.4547335358779
13260000,-67.3937172700795
13264000,-67.3007751256863
13268000,-67.5175426575094
13272000,-67.5302904706228
13276000,-67.4290055572502
13280000,-67.5285905715481
13284000,-67.3235108517458
13288000,-67.173999509407
13292000,-67.2680392765687
13296000,-67.3239292934248
13300000,-67.442124539102
13304000,-67.5368001827683
13308000,-67.4608100409485
13312000,-67.0908997357654
13316000,-66.9739814272979
13320000,-66.8486519386177
13324000,-66.9300259916665
13328000,-67.0548594244206
13332000,-67.3681119732963
13336000,-67.3915271278773
13340000,-66.9653346516426
13344000,-66.8139468802657
13348000,-66.9692000702149
13352000,-66.9927135356514
13356000,-66.9678903106977
13360000,-67.3598964669108
13364000,-67.5120267141149
13368000,-67.5132417987786
13372000,-67.742381820447
13376000,-67.9684517595476
13380000,-67.9674452146466
13384000,-67.6703674238132
13388000,-67.7570885529045
13392000,-67.828492236494
13396000,-68.0955666054528
13400000,-68.3925100940092
13404000,-68.3459809906724
13408000,-68.1412252899102
13412000,-68.0130606313989
13416000,-67.8284782902338
13420000,-67.7488636883871
13424000,-67.7000041786641
13428000,-67.8235547600029
13432000,-67.6903501676071
13436000,-67.562105340262
13440000,-67.6938029930076
13444000,-67.8889602408233
13448000,-67.65544059086
13452000,-67.4568349020483
13456000,-67.4518094960787
13460000,-67.2747450472218
13464000,-67.3411729946732
13468000,-67.655457532993
13472000,-67.8783519597391
13476000,-67.8532416647309
13480000,-67.5731363092571
13484000,-67.3863560189508
13488000,-67.4193740705739
13492000,-67.5449395263792
13496000,-67.8611770798961
13500000,-67.9937046378005
13504000,-68.1360460194717
13508000,-68.2332480625421
13512000,-68.0413394739393
13516000,-67.5189981535758
13520000,-67.4760352233508
13524000,-67.5359788888982
13528000,-67.4349119234836
13532000,-67.3390705611365
13536000,-67.2690129968451
13540000,-67.352067115031
13544000,-67.4396830470313
13548000,-67.6112952665998
13552000,-67.3887229248705
13556000,-67.0945421093686
13560000,-67.0032503785031
13564000,-67.167677995275
13568000,-66.8700452783236
13572000,-66.5889057702534
13576000,-66.606541142855
13580000,-66.7109555047749
13584000,-66.9862125891528
13588000,-66.7258248599362
13592000,-66.6177158870615
13596000,-66.7016599913016
13600000,-66.7664183716793
13604000,-67.0761967893609
13608000,-67.2034937286383
13612000,-67.1522509022397
13616000,-67.2112179007345
13620000,-67.3875557424866
13624000,-67.922838982587
13628000,-68.2122090525336
13632000,-68.0486693588113
13636000,-67.5655904180581
13640000,-67.7371015621909
13644000,-68.2603463663594
13648000,-68.2506655832
13652000,-67.6709573266239
13656000,-67.5664503368581
13660000,-67.6552882722823
13664000,-67.7689843413624
13668000,-67.7502994232281
13672000,-67.6809876766485
13676000,-67.6741668196464
13680000,-67.7163293934812
13684000,-67.6116960346688
13688000,-67.5338467042624
13692000,-67.3819925072869
13696000,-67.6449248301381
13700000,-67.7109512073657
13704000,-67.6181573139718
13708000,-67.4433846502935
13712000,-67.0985307337091
13716000,-67.1405024971923
13720000,-67.3261963589118
13724000,-67.4749650449572
13728000,-67.4844430574374
13732000,-67.3222265966302
13736000,-66.8881944961901
13740000,-66.737160780014
13744000,-66.7951467161715
13748000,-66.6526495188303
13752000,-66.6315103298943
13756000,-66.8328750200098
13760000,-66.993440901271
13764000,-66.7636656174871
13768000,-66.5946962744859
13772000,-66.3462750727005
13776000,-66.2597728238322
13780000,-66.1921676563255
13784000,-66.5532836973603
13788000,-67.0212198586517
13792000,-66.9442260555782
13796000,-67.0092402444102
13800000,-67.5886131304014
13804000,-67.9374946527642
13808000,-67.904892750515
13812000,-67.7907315237618
13816000,-67.6780557934929
13820000,-67.8074936378389
13824000,-67.9122974477092
13828000,-67.7672008220643
13832000,-67.5442848655673
13836000,-67.6778064220918
13840000,-67.7735899604414
13844000,-67.4431138097383
13848000,-67.418758983634
13852000,-67.5706278903099
13856000,-67.5272132253308
13860000,-67.6867960338289
13864000,-67.5699210863774
13868000,-67.3171469271864
13872000,-67.3474370328626
13876000,-67.2772323868333
13880000,-67.3968995247587
13884000,-67.489045045886
13888000,-67.3941041785725
13892000,-67.1697455685071
13896000,-67.2108581186834
13900000,-67.2485983754433
13904000,-67.0444710601106
13908000,-67.0378791184204
13912000,-67.2783273799021
13916000,-67.4966827262917
13920000,-67.6898730590859
13924000,-67.4279297754487
13928000,-66.9641043080658
13932000,-66.8518153250757
13936000,-67.2325627608879
13940000,-67.5464612092787
13944000,-67.617453045343
13948000,-67.6045524657645
13952000,-67.3589414703742
13956000,-67.5557045081454
13960000,-67.8863238577862
13964000,-67.9738039045759
13968000,-68.2634905588198
13972000,-68.3988257061816
13976000,-68.047737998765
13980000,-67.8915904177928
13984000,-67.847116794663
13988000,-67.6621573370255
13992000,-67.6093174588212
13996000,-67.7780164033575
14000000,-67.8655329465483
14004000,-67.7366484525302
14008000,-67.7786312951063
14012000,-67.8916054890706
14016000,-67.9883124285731
14020000,-67.8229987902882
14024000,-67.6369360144879
14028000,-67.5022527716459
14032000,-67.823710149936
14036000,-68.2605990827481
14040000,-68.251565100668
14044000,-68.3075358635498
14048000,-68.0348066167885
14052000,-67.8740929286795
14056000,-67.7662915009397
14060000,-67.7449441473754
14064000,-68.158047233779
14068000,-68.1033319467094
14072000,-67.6638855868251
14076000,-67.7804252985449
14080000,-67.9555961797677
14084000,-68.241650166138
14088000,-68.3383828196822
14092000,-67.9925890930791
14096000,-67.6724371726025
14100000,-67.7900769571444
14104000,-67.8518628590379
14108000,-67.4946664826714
14112000,-67.6861360771544
14116000,-67.8602293900959
14120000,-67.8823150751755
14124000,-67.5260726655498
14128000,-67.6150759477534
14132000,-68.1689996278767
14136000,-67.8911468086576
14140000,-67.6332131935738
14144000,-67.5890295696358
14148000,-67.8781113880349
14152000,-68.1204813275018
14156000,-67.9343409163511
14160000,-67.7782811378341
14164000,-67.9089813773438
14168000,-68.4400046160074
14172000,-68.7385513289629
14176000,-68.8524077448409
14180000,-68.7157628517924
14184000,-68.4657635996915
14188000,-68.3829460057445
14192000,-68.4453333699466
14196000,-67.9617636785031
14200000,-67.9463666311212
14204000,-68.1661432522915
14208000,-68.1572740791144
14212000,-68.0333295733177
14216000,-68.2525380223933
14220000,-68.4846688384231
14224000,-68.2862592073677
14228000,-67.8136773846151
14232000,-67.4018788728182
14236000,-67.4306333201298
14240000,-67.6044552501217
14244000,-67.6089982737258
14248000,-67.7300961303919
14252000,-68.1415392623386
14256000,-68.0779116812741
14260000,-67.9526557945817
14264000,-67.6541016499373
14268000,-67.6237620084809
14272000,-67.596944248273
14276000,-67.4705399560827
14280000,-67.5676353171942
14284000,-67.659586088941
14288000,-67.8666895203231
14292000,-67.7325386342157
14296000,-67.653648580201
14300000,-67.8493645086733
14304000,-68.0939987223513
14308000,-67.9966266234522
14312000,-67.664911985041
14316000,-67.2320944363238
14320000,-67.0923492625068
14324000,-67.2201009433768
14328000,-67.5021635222345
14332000,-67.9540213679617
14336000,-68.1099255547202
14340000,-67.9050276950603
14344000,-67.714087745476
14348000,-67.706191239219
14352000,-67.6551138068623
14356000,-67.8949014971648
14360000,-67.9190719411688
14364000,-67.749397545996
14368000,-67.7563581993519
14372000,-67.750996751945
14376000,-67.7248377400133
14380000,-67.6561521985239
14384000,-67.8541711812916
14388000,-68.0984882386067
14392000,-68.1653201077486
14396000,-68.222322818533
14400000,-68.0723779435616
14404000,-68.1870386081106
14408000,-68.0680396941389
14412000,-67.9857833884773
14416000,-68.1882209117055
14420000,-68.4787148196004
14424000,-68.6643622881062
14428000,-68.6622496752587
14432000,-68.5823997244118
14436000,-68.62506221212
14440000,-68.6874043955484
14444000,-68.7692219928945
14448000,-68.5335023167071
14452000,-68.3171368908372
14456000,-68.1190305081229
14460000,-67.7988282191552
14464000,-67.6743359804476
14468000,-67.8771365106493
14472000,-67.9503710126064
14476000,-68.1582834630264
14480000,-68.1608242422831
14484000,-68.2166188331592
14488000,-68.5004029067998
14492000,-68.5123446202111
14496000,-68.2794608343884
14500000,-67.7613900647719
14504000,-67.4254050147734
14508000,-67.3169841262213
14512000,-67.4775125949957
14516000,-68.0494646065837
14520000,-68.1809985605767
14524000,-67.846369637009
14528000,-67.537671525572
14532000,-67.6935773722655
14536000,-67.964734822308
14540000,-68.0139470775738
14544000,-68.0827158203327
14548000,-68.1901359490094
14552000,-68.4362293309316
14556000,-68.4352066366087
14560000,-68.318881664524
14564000,-67.9854412422253
14568000,-67.8894537246136
14572000,-67.5823005952627
14576000,-67.6249835656557
14580000,-67.4440193889896
14584000,-67.3697220110422
14588000,-67.6686738069364
14592000,-67.9484900220933
14596000,-68.2703681908173
14600000,-68.2639065006708
14604000,-68.337759182384
14608000,-68.3124141322783
14612000,-68.3515690388037
14616000,-68.0726548183659
14620000,-67.9628651587701
14624000,-67.7799240141874
14628000,-67.9393263104101
14632000,-68.2203981822714
14636000,-68.2257620334111
14640000,-68.1776962382278
14644000,-68.2642111937866
14648000,-68.1375137115557
14652000,-67.8813488136307
14656000,-67.9078577265194
14660000,-67.7893325457011
14664000,-68.1845023280359
14668000,-68.4207799287799
14672000,-68.0026011689949
14676000,-67.6139881256404
14680000,-67.6775984117344
14684000,-67.6876921257723
14688000,-67.6808421358539
14692000,-68.0237559016526
14696000,-68.2288085377323
14700000,-67.9913284786777
14704000,-67.8450589752871
14708000,-67.7492479589567
14712000,-67.5733540983908
14716000,-67.6840905685083
14720000,-68.1529389978899
14724000,-68.5763733943555
14728000,-68.4483264520911
14732000,-68.1196121103124
14736000,-67.7586502311033
14740000,-67.723126360014
14744000,-68.0695789155409
14748000,-68.3752496191893
14752000,-68.6151742922576
14756000,-68.3839280334841
14760000,-68.1961996672126
14764000,-68.1010259515407
14768000,-68.048143663424
14772000,-68.2655587994387
14776000,-68.467907229337
14780000,-68.4785668347349
14784000,-68.1118803854067
14788000,-68.0128950634888
14792000,-68.1519254973609
14796000,-68.350084103453
14800000,-68.2438964266887
14804000,-68.4335948220987
14808000,-68.494537484076
14812000,-68.1289628754219
14816000,-68.2493942936995
14820000,-68.8433313096703
14824000,-69.0018763585324
14828000,-68.6517523898498
14832000,-68.1043509074818
14836000,-68.0659836519444
14840000,-68.1590631281643
14844000,-68.3879304497474
14848000,-68.5013422812079
14852000,-68.2476650048246
14856000,-68.1302762730847
14860000,-68.0749230551988
14864000,-67.9638934856239
14868000,-68.0687830955097
14872000,-68.5513763472972
14876000,-68.5903980782014
14880000,-68.5902546795784
14884000,-68.6827749044698
14888000,-68.7355904688651
14892000,-68.591375818525
14896000,-68.1006595638107
14900000,-67.6356499113656
14904000,-67.7422798429819
14908000,-67.7473777782489
14912000,-67.9089802163347
14916000,-67.9351076443636
14920000,-67.703652421076
14924000,-67.4808058785031
14928000,-67.6356567850046
14932000,-67.9478136597132
14936000,-67.8317815669949
14940000,-67.7194839960404
14944000,-67.9286526109872
14948000,-68.2682521504739
14952000,-68.6382008068677
14956000,-68.6916594538343
14960000,-68.4664879703002
14964000,-68.1803098379211
14968000,-68.0044481334196
14972000,-68.0051471133464
14976000,-68.0721561800653
14980000,-68.4369846404946
14984000,-68.7087558058834
14988000,-68.4258948603585
14992000,-68.4793078565695
14996000,-68.2990957030183
15000000,-68.067073498913
15004000,-68.1653246468866
15008000,-68.3499542696429
15012000,-68.8546071423124
15016000,-68.892719328673
15020000,-68.4105325290276
15024000,-67.9304724633291
15028000,-67.7114752651973
15032000,-67.3973814837709
15036000,-67.4133771098125
15040000,-67.9748380418136
15044000,-68.780732513296
15048000,-69.0523983493868
15052000,-68.6815931759164
15056000,-68.5655293034608
15060000,-68.3615611910803
15064000,-68.2683740415143
15068000,-68.0295757712291
15072000,-68.1344325618855
15076000,-68.2815094814268
15080000,-68.4145820707194
15084000,-68.48871142756
15088000,-68.458155658063
15092000,-68.7499730953877
15096000,-68.8766815109096
15100000,-68.6942310199862
15104000,-68.7037555004401
15108000,-68.7725837236195
15112000,-68.502886082271
15116000,-68.0959774673141
15120000,-67.9052907588373
15124000,-67.998363838348
15128000,-67.8984046995064
15132000,-68.1089379017865
15136000,-68.1598227922315
15140000,-68.1742524018895
15144000,-68.0508761420182
15148000,-67.9834742995842
15152000,-68.0158552619398
15156000,-68.6281591588943
15160000,-68.8482993636224
15164000,-68.9370121939789
15168000,-68.6886306301155
15172000,-68.6894981326931
15176000,-68.8443132541434
15180000,-68.4560295438912
15184000,-68.1766664890321
15188000,-67.9355751729553
15192000,-67.8486041368033
15196000,-67.7912269524068
15200000,-68.024690269412
15204000,-68.495051027432
15208000,-68.8385541836216
15212000,-68.8437321739127
15216000,-68.5231256677234
15220000,-68.3656690513147
15224000,-68.2518250762393
15228000,-68.0570883046004
15232000,-67.8517726490903
15236000,-67.8453273314369
15240000,-67.8374316649245
15244000,-67.7902195823722
15248000,-67.7523215931692
15252000,-68.041892587695
15256000,-68.0982061321502
15260000,-68.1776559257984
15264000,-67.9955374267035
15268000,-68.1151651198868
15272000,-68.1587030778912
15276000,-68.3988952820361
15280000,-68.4978290114087
15284000,-68.082621833155
15288000,-67.9579891792328
15292000,-68.4504369010963
15296000,-68.7389753567221
15300000,-68.6238922430749
15304000,-68.2664621867844
15308000,-68.19361854044
15312000,-68.2637643162615
15316000,-68.4752435101971
15320000,-68.6960530040527
15324000,-68.5798083210917
15328000,-68.2668165168213
15332000,-68.0906183646162
15336000,-68.3543002251661
15340000,-68.387719865667
15344000,-68.1532148936037
15348000,-67.7327294711663
15352000,-67.6144484859344
15356000,-68.0910054082264
15360000,-68.5481024403657
15364000,-68.7932609628322
15368000,-68.8285349450291
15372000,-68.7002053705477
15376000,-68.3765196648985
15380000,-68.4096777580501
15384000,-68.4365258386863
15388000,-68.7434928443528
15392000,-68.8103147344295
15396000,-68.8114524930345
15400000,-68.7235115693972
15404000,-68.7298326523192
15408000,-68.7857968568762
15412000,-69.1208099789531
15416000,-69.0531353622105
15420000,-68.6772412773983
15424000,-68.6021986449727
15428000,-68.8521284471569
15432000,-68.6764545531416
15436000,-68.5944685915828
15440000,-68.5386487561642
15444000,-68.4123059531375
15448000,-68.4141710750634
15452000,-68.7326881411438
15456000,-68.8752870197224
15460000,-68.6756599480925
15464000,-68.4722668232833
15468000,-68.2176197684891
15472000,-68.3035800308714
15476000,-68.4097131080444
15480000,-68.449588467104
15484000,-68.5183316045269
15488000,-68.4726663902265
15492000,-68.1699078558167
15496000,-68.0968850141342
15500000,-67.9294213144701
15504000,-67.8886034411775
15508000,-68.1903867614548
15512000,-68.3735624328922
15516000,-68.6171361681876
15520000,-68.7184291835637
15524000,-68.8527554483894
15528000,-68.6243354403716
15532000,-68.2045779240754
15536000,-67.932663700285
15540000,-67.9041821668718
15544000,-68.2296584374679
15548000,-68.3885284971348
15552000,-68.4763866204478
15556000,-68.7028409602024
15560000,-68.4937911468342
15564000,-68.5215007173245
15568000,-68.5928275207853
15572000,-68.260396046668
15576000,-68.224516939477
15580000,-68.3004217340225
15584000,-68.1883883852301
15588000,-68.1585064064769
15592000,-68.3115363200301
15596000,-68.3740231554186
15600000,-68.3170077131014
15604000,-68.2463143225621
15608000,-68.4025136431649
15612000,-68.2049023570481
15616000,-68.2751474657597
15620000,-68.5732141387808
15624000,-68.4730281290642
15628000,-68.4215157902664
15632000,-68.236338517637
15636000,-68.0336063771649
15640000,-68.1454370689851
15644000,-68.296498754377
15648000,-68.4075327083046
15652000,-68.19900927445
15656000,-68.1640686096851
15660000,-68.0805860306957
15664000,-68.4039182929472
15668000,-68.5804468596885
15672000,-68.6824839854309
15676000,-68.8485990450535
15680000,-68.6693838870548
15684000,-68.5984412339796
15688000,-68.7960891864207
15692000,-68.6707154701805
15696000,-68.6177129077214
15700000,-68.7494586761729
15704000,-68.7541234626037
15708000,-68.6875781832159
15712000,-68.5660000569357
15716000,-68.6050168789316
15720000,-68.5272462944868
15724000,-68.4023159584546
15728000,-68.2845266981782
15732000,-68.4888905457294
15736000,-68.8340150526708
15740000,-69.0946826751955
15744000,-69.1112740267754
15748000,-69.0908292633239
15752000,-69.1678290064213
15756000,-69.0419883535854
15760000,-68.6544209359755
15764000,-68.4183454311203
15768000,-68.3872104754937
15772000,-68.5183437597428
15776000,-68.5247370576407
15780000,-68.6641939073773
15784000,-69.0889915187089
15788000,-69.2464827356882
15792000,-68.9402931245654
15796000,-68.6421205977191
15800000,-68.6331048374982
15804000,-68.7900237930073
15808000,-68.5394157549958
15812000,-68.4605035709898
15816000,-68.571222268837
15820000,-68.6766520797407
15824000,-69.0005768720579
15828000,-69.0486049417217
15832000,-68.673915687671
15836000,-68.8217405748461
15840000,-68.9316856777831
15844000,-68.8113823999989
15848000,-68.7276673976894
15852000,-68.6462714412173
15856000,-68.4690169446918
15860000,-68.1582068479566
15864000,-68.1124495389422
15868000,-68.0800802280981
15872000,-67.9068673838487
15876000,-67.8719468849126
15880000,-68.1532650447019
15884000,-68.3636180408737
15888000,-68.3031733669189
15892000,-68.296039270433
15896000,-68.3696153797617
15900000,-68.2935198507051
15904000,-68.3462765440942
15908000,-68.4811757046054
15912000,-68.488735286946
15916000,-68.7805324097757
15920000,-68.9014570968167
15924000,-68.6855323417277
15928000,-68.5681974634406
15932000,-68.3432685401026
15936000,-68.3947121522056
15940000,-68.8941717079933
15944000,-69.2030677095809
15948000,-68.8732064078324
15952000,-68.9145929623743
15956000,-69.0104838496456
15960000,-68.7143233218154
15964000,-68.3267935515711
15968000,-68.2730514102004
15972000,-68.4964226424149
15976000,-68.688178779557
15980000,-68.8174881590324
15984000,-68.5964799181108
15988000,-68.7036270783262
15992000,-68.5404422985436
15996000,-68.4907534651799
16000000,-68.8240090560862
