Trace
Swept SA
A.12.13,N9010A
513 B25 DP2 RTL ,01
Segment,0
Number of Points,1001
Sweep Time,0.044
Start Frequency,6000000
Stop Frequency,14000000
Average Count,0
Average Type,LogPower(Video)
RBW,9100
RBW Filter,Gaussian
RBW Filter BW,3dB
VBW,9100
Sweep Type,Swept
X Axis Scale,Lin
PreAmp State,Off
PreAmp Band,Low
Trigger Source,Periodic
Trigger Level,1
Trigger Slope,Positive
Trigger Delay,0
Phase Noise Optimization,Narrow
Swept If Gain,Low
FFT If Gain,Autorange
RF Coupling,AC
FFT Width,411900
Ext Ref,10000000
Input,RF
RF Calibrator,Off
Attenuation,10
Ref Level Offset,0
External Gain,0
Trace Type,Average
Detector,Sample
Trace Math,Off
Trace Math Oper1,Trace5
Trace Math Oper2,Trace6
Trace Math Offset,0
Trace Name,Trace1
X Axis Units,Hz
Y Axis Units,dBm
DATA
6000000,-71.0630013209936
6008000,-69.897806093896
6016000,-72.0263342348732
6024000,-71.6205496255006
6032000,-69.8729488297003
6040000,-69.0800808601338
6048000,-70.4986368526304
6056000,-73.4791784117658
6064000,-70.229760427654
6072000,-68.4130563080493
6080000,-69.564723909618
6088000,-72.1832814879069
6096000,-70.9186958844868
6104000,-70.2854243961781
6112000,-71.216152981618
6120000,-69.5515711997474
6128000,-70.7014192506888
6136000,-68.5915427540649
6144000,-71.9225658974584
6152000,-71.4910712104258
6160000,-70.4751696848868
6168000,-69.2049698718879
6176000,-71.0177554999626
6184000,-69.4495843021665
6192000,-69.7561839048715
6200000,-70.2108798782164
6208000,-72.4238141525704
6216000,-70.8263426758438
6224000,-71.0192425901785
6232000,-70.5578591825669
6240000,-69.6276502751714
6248000,-68.1245672483966
6256000,-69.7263563514829
6264000,-67.3685992353439
6272000,-68.6253650401206
6280000,-72.6239624971613
6288000,-70.752457249454
6296000,-73.3489475287284
6304000,-72.7953259980991
6312000,-70.4991478670313
6320000,-69.0744715448142
6328000,-67.9950768980704
6336000,-68.0068633252918
6344000,-68.7553257632688
6352000,-68.6029723199656
6360000,-70.5480434108931
6368000,-72.0819368897558
6376000,-72.9616508280776
6384000,-69.5687022139692
6392000,-71.4692580522283
6400000,-71.5942076436457
6408000,-70.0119808349967
6416000,-69.4352837785994
6424000,-70.615084125347
6432000,-70.689986549286
6440000,-71.9225970428368
6448000,-71.0397507913509
6456000,-68.3219909457163
6464000,-69.6177180436347
6472000,-70.4866437227843
6480000,-70.2127804367555
6488000,-70.2932398789222
6496000,-70.7350687267984
6504000,-68.5204726433229
6512000,-70.8274980486348
6520000,-71.2794123573075
6528000,-70.9401862186856
6536000,-70.92629515583
6544000,-70.6385599226831
6552000,-71.47155051094
6560000,-73.6759419962599
6568000,-71.1290971268412
6576000,-71.7189129767848
6584000,-70.5686046875081
6592000,-69.5414992393613
6600000,-68.2681499200059
6608000,-68.2494827592407
6616000,-71.332833541082
6624000,-70.809548274604
6632000,-71.3291816486895
6640000,-69.6233295017489
6648000,-71.795904613502
6656000,-70.7933005007767
6664000,-70.4259412104199
6672000,-69.5160990812673
6680000,-70.3245692193705
6688000,-69.8137558800638
6696000,-70.6007181423885
6704000,-72.9138490919724
6712000,-71.5168975636526
6720000,-70.3499836884679
6728000,-67.5739786006293
6736000,-65.7614788148447
6744000,-67.4500952636053
6752000,-65.1911468316993
6760000,-66.2184567779139
6768000,-70.7711757298051
6776000,-71.2409129608879
6784000,-69.5412327924182
6792000,-69.7887764155803
6800000,-69.1534272604573
6808000,-69.8380616644773
6816000,-70.6014520308541
6824000,-70.5173729705654
6832000,-73.1718362114375
6840000,-70.5088332200616
6848000,-70.1000740970333
6856000,-69.7826922237319
6864000,-70.4449780490891
6872000,-68.6611116880282
6880000,-69.2193631039624
6888000,-73.1058008009065
6896000,-69.7596846278554
6904000,-73.2519215266376
6912000,-70.8767803281794
6920000,-70.7684981208642
6928000,-70.6050626422986
6936000,-71.3638110041158
6944000,-71.6206648367129
6952000,-71.0773750898883
6960000,-67.9410329549901
6968000,-66.9744096108074
6976000,-67.0591753805524
6984000,-69.7939278314263
6992000,-69.4408894470954
7000000,-72.7263923326535
7008000,-69.491090862932
7016000,-68.0213214721164
7024000,-68.4612472825143
7032000,-69.1086323973918
7040000,-70.0136920008805
7048000,-70.725095194175
7056000,-70.9597233393341
7064000,-72.4540977413409
7072000,-70.0842060346767
7080000,-69.8156121750272
7088000,-68.3803587097631
7096000,-69.7470509452853
7104000,-68.9620893951438
7112000,-70.904104349648
7120000,-70.9347850659268
7128000,-68.3236489662335
7136000,-70.9269216314935
7144000,-70.8002774814321
7152000,-69.6677420924064
7160000,-72.8474871875922
7168000,-69.4791416803876
7176000,-70.0539170615206
7184000,-69.1557846651092
7192000,-72.8815033247844
7200000,-71.4986042014114
7208000,-71.0674825242044
7216000,-68.670054505044
7224000,-68.1072110395154
7232000,-71.267979266267
7240000,-70.5362982750706
7248000,-69.4629604241293
7256000,-69.9359325760746
7264000,-70.8415556835225
7272000,-69.9837873975467
7280000,-72.8844173690496
7288000,-70.9212408218277
7296000,-70.7266067246911
7304000,-69.5276788468949
7312000,-70.1051932361445
7320000,-69.6734179870536
7328000,-69.3602859280664
7336000,-69.3707934156974
7344000,-67.6061411497651
7352000,-70.1107071869557
7360000,-71.6063735245958
7368000,-68.8635599535537
7376000,-68.65266576683
7384000,-70.075679978837
7392000,-72.2094596961043
7400000,-70.9580486402882
7408000,-69.6821310867482
7416000,-67.2802883075572
7424000,-68.3833493534853
7432000,-68.5878707592076
7440000,-71.2334025648672
7448000,-66.7607256487931
7456000,-67.0760217210488
7464000,-71.6202772375092
7472000,-70.1962274581353
7480000,-70.3147465391122
7488000,-68.5484442074972
7496000,-69.3076652403363
7504000,-69.5548281410929
7512000,-70.3788695758206
7520000,-70.2458202690034
7528000,-69.0003095221833
7536000,-70.9304609736833
7544000,-67.8447501240332
7552000,-66.67667320132
7560000,-67.7811454504741
7568000,-68.0803508542888
7576000,-70.2569057376108
7584000,-69.8588293296878
7592000,-69.1445796427926
7600000,-71.4795380853795
7608000,-68.7107043493061
7616000,-67.1473235362727
7624000,-69.1428070017939
7632000,-69.6165674040082
7640000,-68.9706679334457
7648000,-68.5599639593901
7656000,-69.3026914730916
7664000,-68.7167772126637
7672000,-67.0035683418327
7680000,-67.3511791676631
7688000,-71.9094677207917
7696000,-71.6701818940766
7704000,-72.114412055144
7712000,-73.9782009038983
7720000,-72.3552177848421
7728000,-71.1895386327048
7736000,-68.7816253252315
7744000,-68.8447698617818
7752000,-67.8090982585857
7760000,-69.5140853897225
7768000,-70.506609141916
7776000,-73.9928552146892
7784000,-71.8469216693559
7792000,-70.2585969524786
7800000,-71.3037214544433
7808000,-69.792505124338
7816000,-70.18240573138
7824000,-72.2413148008851
7832000,-67.954028644583
7840000,-68.2870755121804
7848000,-68.5415650492115
7856000,-67.9102656649051
7864000,-71.2250464710565
7872000,-70.1022830385951
7880000,-68.4698664488588
7888000,-70.0635510909669
7896000,-69.0003986310208
7904000,-68.8588676146183
7912000,-67.201847896379
7920000,-70.781606012573
7928000,-70.3366374413695
7936000,-70.3223173305709
7944000,-69.316522822799
7952000,-68.1187165292171
7960000,-69.8507277742137
7968000,-67.1438942023363
7976000,-68.1519120105719
7984000,-71.7000069849947
7992000,-70.2768304548351
8000000,-70.2631305167763
8008000,-71.5087059605233
8016000,-71.3885941744856
8024000,-69.7176094374826
8032000,-70.8180255919602
8040000,-68.7905425298362
8048000,-67.9959350955084
8056000,-68.0443402523163
8064000,-70.7327373146212
8072000,-71.2073979383027
8080000,-71.565320082922
8088000,-69.6870055753032
8096000,-71.2278184683687
8104000,-70.6704500652317
8112000,-70.5374819045256
8120000,-68.5595815804759
8128000,-68.1397703909423
8136000,-70.4454727017516
8144000,-72.0290709739393
8152000,-71.245323751014
8160000,-71.3879803673265
8168000,-70.5557632167069
8176000,-72.5874383002054
8184000,-70.8648734577092
8192000,-70.4604800434502
8200000,-69.8939688463228
8208000,-68.3167722151561
8216000,-70.8223456868308
8224000,-71.0707505408953
8232000,-72.6691243589259
8240000,-71.9974537986679
8248000,-73.0501344152532
8256000,-69.3464031705326
8264000,-69.1822790770553
8272000,-69.9186570052144
8280000,-71.2451092541834
8288000,-70.0594291177862
8296000,-70.7729668402661
8304000,-72.3511361912382
8312000,-69.2678553712374
8320000,-69.7991606846939
8328000,-71.1809107937991
8336000,-72.1379816709658
8344000,-67.816809657182
8352000,-67.7961448519165
8360000,-69.8375862794809
8368000,-69.8321930944967
8376000,-68.5155825466499
8384000,-70.2394437949563
8392000,-73.5827874911166
8400000,-71.2970038109514
8408000,-69.9183791578729
8416000,-68.99546777047
8424000,-68.3931156528824
8432000,-68.944269059474
8440000,-70.6780508332278
8448000,-71.9969466767282
8456000,-70.0860743728401
8464000,-68.1920883425564
8472000,-69.1502801852749
8480000,-70.8763618125006
8488000,-68.4815330880252
8496000,-68.3954488030187
8504000,-69.4103894216947
8512000,-72.7427431345717
8520000,-71.0239896332504
8528000,-67.8173042446301
8536000,-66.7329461428992
8544000,-67.991140915058
8552000,-68.9678764401524
8560000,-69.2887352915092
8568000,-69.6816579527132
8576000,-70.4695011654684
8584000,-71.3858596753334
8592000,-69.432980711816
8600000,-70.5055273775416
8608000,-70.4762024467115
8616000,-71.5927705888643
8624000,-70.4000953084827
8632000,-70.2051293170651
8640000,-68.2984533895801
8648000,-66.8319759261183
8656000,-69.8020929219511
8664000,-67.2547768453029
8672000,-71.1099507042051
8680000,-71.7795657882005
8688000,-70.8226371513288
8696000,-69.858269932457
8704000,-70.4529012510822
8712000,-68.2287528573685
8720000,-71.0979535463972
8728000,-69.4794964371649
8736000,-70.3666412906567
8744000,-70.6914060033716
8752000,-71.0131154789999
8760000,-69.2929000647337
8768000,-68.9671881967889
8776000,-71.6198737090926
8784000,-70.095935246064
8792000,-70.9006510573516
8800000,-70.7895618902789
8808000,-70.4622639630835
8816000,-71.2181221944112
8824000,-68.9010974348224
8832000,-69.3676124820904
8840000,-70.7657919759
8848000,-65.8867637304391
8856000,-68.2006059933126
8864000,-68.981705470596
8872000,-69.4210858364946
8880000,-70.7326785540235
8888000,-69.4246671315965
8896000,-70.4085504722714
8904000,-68.9403944567004
8912000,-67.8853804451501
8920000,-70.2576323309362
8928000,-68.862619923223
8936000,-69.0904140594496
8944000,-67.6810637375245
8952000,-68.0036045650292
8960000,-70.325091144582
8968000,-68.3949837989945
8976000,-69.1568754216876
8984000,-70.1776759339829
8992000,-71.5697108975482
9000000,-74.2264161262537
9008000,-69.8946417022103
9016000,-67.7523703875551
9024000,-71.4029732400414
9032000,-68.4521899443264
9040000,-65.8281117151666
9048000,-65.3139677630123
9056000,-66.5691598057595
9064000,-69.678646100244
9072000,-69.0949205431368
9080000,-69.5396704691275
9088000,-70.2493811256934
9096000,-71.9170974192907
9104000,-70.5995014450624
9112000,-69.9193580304048
9120000,-69.5195360269174
9128000,-68.7014728680879
9136000,-68.315127798821
9144000,-64.6611123208791
9152000,-65.421333292714
9160000,-68.5466143196875
9168000,-65.6870105470804
9176000,-66.4732689331195
9184000,-67.8393765330425
9192000,-68.6179428847354
9200000,-70.4585610493103
9208000,-70.0969456184438
9216000,-69.0673196792264
9224000,-67.6966970573305
9232000,-67.3859787852802
9240000,-66.9541365621753
9248000,-64.294863166154
9256000,-66.626189933638
9264000,-66.7113085657494
9272000,-67.5093639677011
9280000,-69.7083109946773
9288000,-69.920108521592
9296000,-71.3318507640635
9304000,-69.721297484631
9312000,-70.9289530780384
9320000,-68.5235594973547
9328000,-65.7710860285947
9336000,-67.3419081896027
9344000,-66.4410572820007
9352000,-66.9184117881737
9360000,-68.8868960599219
9368000,-65.5297579179087
9376000,-66.739547756172
9384000,-70.3931181584819
9392000,-71.5871730088077
9400000,-72.2646779322632
9408000,-68.6752510717695
9416000,-69.2466778890017
9424000,-65.2551924161719
9432000,-64.4496296643446
9440000,-66.6974275397132
9448000,-62.3800001663241
9456000,-64.4211495113664
9464000,-63.6686096927899
9472000,-63.7605193902466
9480000,-67.2503463973236
9488000,-66.1420794469365
9496000,-68.1394231833588
9504000,-73.3103099113264
9512000,-67.9343284915541
9520000,-67.5325006077307
9528000,-64.8102316761405
9536000,-64.2732100780061
9544000,-62.4625795654537
9552000,-61.2257177442162
9560000,-63.8275210518239
9568000,-61.1309991460006
9576000,-63.6453732339604
9584000,-65.007272971411
9592000,-67.0069087693534
9600000,-70.4753285706326
9608000,-69.8822546228605
9616000,-67.963889564883
9624000,-63.4033822624645
9632000,-62.2193460222584
9640000,-64.9082408837255
9648000,-60.8170793797495
9656000,-62.1727173889693
9664000,-62.1611588813187
9672000,-60.9073269571258
9680000,-67.0708878609913
9688000,-67.4023281956517
9696000,-69.3232878040511
9704000,-68.2378794318178
9712000,-67.3295129902388
9720000,-65.2242884434724
9728000,-58.001537925675
9736000,-59.1332785540408
9744000,-57.7041266087949
9752000,-57.4036667126653
9760000,-60.8552490413165
9768000,-56.9439078989175
9776000,-61.2383437149308
9784000,-63.3645819611102
9792000,-63.523755900239
9800000,-66.2049420489744
9808000,-64.1759152879503
9816000,-63.3562194254952
9824000,-58.3467056309828
9832000,-55.8647874553305
9840000,-57.2556192114649
9848000,-52.1675632104905
9856000,-54.8659132167027
9864000,-53.6783568649539
9872000,-52.9666367540134
9880000,-58.5501303204285
9888000,-58.0984401500694
9896000,-62.7935729410028
9904000,-61.9516218407949
9912000,-57.7872887961356
9920000,-55.2567804521932
9928000,-48.3822499363772
9936000,-49.0408269484823
9944000,-44.8573245497446
9952000,-43.1454359324039
9960000,-44.9018722372271
9968000,-40.0735730759758
9976000,-42.5351911504694
9984000,-39.1446168288705
9992000,-26.906023789176
10000000,-20.9951131100485
10008000,-25.8051025741365
10016000,-38.3265753910807
10024000,-40.593637010361
10032000,-40.6776841289017
10040000,-45.3139412705898
10048000,-42.3825673994249
10056000,-46.1262452791896
10064000,-47.8505203424043
10072000,-48.3624251659644
10080000,-55.5399809427572
10088000,-55.4572464225352
10096000,-60.568962179897
10104000,-61.5158351962444
10112000,-59.6297336739338
10120000,-58.7856005396461
10128000,-54.2605763407272
10136000,-54.9996914751119
10144000,-54.4058245294883
10152000,-53.526775393207
10160000,-57.9935949613213
10168000,-55.500072704163
10176000,-59.3994367375645
10184000,-62.5616524420306
10192000,-63.2625717191983
10200000,-67.5657208833201
10208000,-65.4747962770354
10216000,-65.9932003350507
10224000,-60.7006189586099
10232000,-58.7715486829342
10240000,-60.6579333649913
10248000,-56.4448498926178
10256000,-58.1195240467216
10264000,-60.1417100522714
10272000,-60.6224810184788
10280000,-64.6597725978994
10288000,-64.4580902997393
10296000,-67.2910224982208
10304000,-70.8647750632837
10312000,-67.9701886462922
10320000,-66.8157865014789
10328000,-62.0233626200492
10336000,-61.3528987967195
10344000,-61.2929320571919
10352000,-61.3046007850095
10360000,-63.1716272940713
10368000,-61.2060824715415
10376000,-67.6303072149223
10384000,-69.2121273036197
10392000,-67.7330666960775
10400000,-70.6636319167048
10408000,-69.4314625661404
10416000,-68.3894602335977
10424000,-65.6078941754537
10432000,-64.0227789707192
10440000,-65.3327261446185
10448000,-61.1922635709938
10456000,-63.458807268332
10464000,-67.4849948522537
10472000,-67.4099222088955
10480000,-69.1459644900079
10488000,-70.7645705429168
10496000,-69.0131270313834
10504000,-70.129216054063
10512000,-70.7766566420006
10520000,-67.9429160183993
10528000,-66.2884634868707
10536000,-68.2811593578847
10544000,-65.0466606225136
10552000,-64.5899938138931
10560000,-66.0503785642008
10568000,-63.6126004357725
10576000,-66.2751577569148
10584000,-69.0243012710919
10592000,-69.0250931084647
10600000,-68.6738156818663
10608000,-68.7393167672998
10616000,-69.172210135201
10624000,-67.3686322670169
10632000,-66.8609296872186
10640000,-67.7126411198423
10648000,-66.0162117879436
10656000,-65.81433794074
10664000,-65.9751960604577
10672000,-67.0518865964528
10680000,-68.4678196652482
10688000,-70.8200974736306
10696000,-70.9281334752256
10704000,-70.5440958846592
10712000,-68.5688594412199
10720000,-69.827689483353
10728000,-67.9260708433994
10736000,-69.6642844846608
10744000,-66.1837025737869
10752000,-66.8122132559591
10760000,-68.6430094772321
10768000,-67.1035468022862
10776000,-67.6377007161048
10784000,-68.2322575583175
10792000,-68.9268056913473
10800000,-70.7511657027082
10808000,-68.5593939208826
10816000,-68.2621118985345
10824000,-65.9635576265547
10832000,-66.1930320651258
10840000,-67.9685383425483
10848000,-68.3816775056136
10856000,-68.7108782908253
10864000,-69.6117989049476
10872000,-68.3556984694223
10880000,-67.4440056283704
10888000,-68.4952073130371
10896000,-69.2227543354126
10904000,-70.8805579014943
10912000,-71.1054726371802
10920000,-69.0418550134435
10928000,-67.9890323876407
10936000,-68.2297333997331
10944000,-69.5443869531191
10952000,-69.6254461752325
10960000,-69.8668206306689
10968000,-70.443044905788
10976000,-73.0768991878281
10984000,-71.6410549861479
10992000,-72.144764679626
11000000,-74.7947540250351
11008000,-70.3043166865596
11016000,-68.8621111721953
11024000,-69.1538834182802
11032000,-67.9927939320704
11040000,-69.5848278130521
11048000,-68.5945101840571
11056000,-69.4805947498971
11064000,-70.7144922247001
11072000,-71.7178882137051
11080000,-67.9245607084088
11088000,-69.5202623238544
11096000,-73.5733688809195
11104000,-71.7612981680063
11112000,-70.8254120380474
11120000,-70.574460488586
11128000,-69.0414143066313
11136000,-68.1151665290871
11144000,-67.701244878061
11152000,-69.0325498392846
11160000,-67.5814574986609
11168000,-68.7489541684107
11176000,-72.0681042619902
11184000,-69.1018993626163
11192000,-69.094758458412
11200000,-70.0636198089692
11208000,-71.4751381739868
11216000,-70.221707061689
11224000,-71.2717813722114
11232000,-70.1794503167379
11240000,-70.3023619739045
11248000,-69.2632720149432
11256000,-68.9875982232135
11264000,-69.6020683468688
11272000,-71.7497270443214
11280000,-68.2737772317518
11288000,-68.9511143114967
11296000,-69.2849689055285
11304000,-68.5491930645639
11312000,-70.2315960389193
11320000,-70.6905391194274
11328000,-71.6059699151933
11336000,-71.5195441614527
11344000,-70.7765090353378
11352000,-68.0794357657928
11360000,-68.6692066258066
11368000,-69.2131584436877
11376000,-69.7296464018308
11384000,-70.0066702977856
11392000,-74.161669836809
11400000,-72.9034789225231
11408000,-72.8164357544109
11416000,-69.6845133098674
11424000,-68.8413317506391
11432000,-70.1206300632585
11440000,-69.0703546895432
11448000,-69.964777918846
11456000,-73.5349171698859
11464000,-70.9681386673941
11472000,-69.8129228246837
11480000,-70.3206009011448
11488000,-69.1251390303254
11496000,-69.7050009672888
11504000,-72.2041187903162
11512000,-71.4017776315482
11520000,-73.1054548142144
11528000,-73.0633741368499
11536000,-71.9773338235773
11544000,-71.3894073036904
11552000,-70.7230849535863
11560000,-69.7661852089057
11568000,-67.7427665975207
11576000,-67.9024324195108
11584000,-69.1165457887368
11592000,-70.5662655281394
11600000,-69.8385966754207
11608000,-72.5622481398934
11616000,-71.3127151700579
11624000,-70.1450540578543
11632000,-70.1388963086086
11640000,-70.6359645217962
11648000,-70.3266218869317
11656000,-69.4862100003408
11664000,-70.5592861870705
11672000,-70.9539846999203
11680000,-70.0666200796267
11688000,-72.6872388729591
11696000,-74.534714151027
11704000,-71.6325748467392
11712000,-72.9869658236937
11720000,-72.0747118092826
11728000,-73.2062278911832
11736000,-73.3953045514759
11744000,-69.1590959778375
11752000,-67.8870850242693
11760000,-69.3023716890983
11768000,-69.3851289120125
11776000,-79.0755443638085
11784000,-73.7974745410228
11792000,-73.031649909517
11800000,-72.9162699482168
11808000,-73.2124338487482
11816000,-72.899248030688
11824000,-71.503354965944
11832000,-73.0772986678475
11840000,-71.1075699634178
11848000,-74.4345926393956
11856000,-72.8154614973527
11864000,-71.7226069870431
11872000,-70.1477728414908
11880000,-72.6384483962596
11888000,-71.0929023188389
11896000,-70.1803250219825
11904000,-71.4439236039984
11912000,-70.2025849092735
11920000,-71.8674925322648
11928000,-71.2183295357259
11936000,-69.1079638301447
11944000,-69.9821769854395
11952000,-71.3023296621282
11960000,-70.6114499990228
11968000,-69.6239440511016
11976000,-71.7801381226048
11984000,-72.1195948876111
11992000,-72.1378331097226
12000000,-75.063553889774
12008000,-72.0636213896535
12016000,-70.5706909276022
12024000,-70.2955122428529
12032000,-69.0174080568265
12040000,-72.599139291674
12048000,-70.0706868135421
12056000,-72.2750614142149
12064000,-76.3694562742536
12072000,-72.1244879828941
12080000,-70.385566082167
12088000,-72.8432112307464
12096000,-72.0603678275921
12104000,-71.389550404952
12112000,-73.9848763440825
12120000,-73.8781906368758
12128000,-71.4275160998365
12136000,-71.3092374702956
12144000,-69.4441097185308
12152000,-70.7758927488183
12160000,-78.7110647001524
12168000,-71.7183072536357
12176000,-70.7586616394807
12184000,-71.0126380258262
12192000,-70.2397733208647
12200000,-70.137643908434
12208000,-70.2801974341397
12216000,-70.5953870467867
12224000,-68.6357007596209
12232000,-67.7082930461027
12240000,-68.5294357699656
12248000,-71.3994370236465
12256000,-71.0984220562378
12264000,-72.5968505501649
12272000,-71.6768941092783
12280000,-70.157270108416
12288000,-71.3772860218633
12296000,-72.5924462517962
12304000,-74.5620564225191
12312000,-74.1918020534755
12320000,-73.1714638379154
12328000,-71.7627433448168
12336000,-71.1967337038318
12344000,-71.3313587178309
12352000,-70.8272236173172
12360000,-70.6048035081479
12368000,-73.0631048006696
12376000,-72.963101875128
12384000,-73.6574129288054
12392000,-73.3190083422214
12400000,-72.8693566941239
12408000,-74.8487812577108
12416000,-72.4815654785001
12424000,-70.5684205122957
12432000,-72.8004672421986
12440000,-70.0445577664751
12448000,-70.434874508947
12456000,-70.9725036250468
12464000,-69.2538954133376
12472000,-72.5691049413914
12480000,-71.1509737757284
12488000,-72.7844146518699
12496000,-76.1999875959722
12504000,-73.1146284568843
12512000,-70.6191350820201
12520000,-69.6778836986577
12528000,-68.9802256241836
12536000,-69.5130740674947
12544000,-73.0646348840534
12552000,-74.5615847090634
12560000,-72.3833390663555
12568000,-71.5680296033301
12576000,-72.4681448329249
12584000,-72.2768379054485
12592000,-70.7907184187785
12600000,-71.1550267736492
12608000,-72.8964413524649
12616000,-71.9447354711228
12624000,-71.5159362694721
12632000,-73.0379273141145
12640000,-72.2447420846899
12648000,-72.9487587242314
12656000,-71.3261718143297
12664000,-71.0395182393984
12672000,-72.9871832757801
12680000,-70.4879644747066
12688000,-71.8650577485125
12696000,-69.8245873711761
12704000,-70.005865947613
12712000,-70.5605724314693
12720000,-71.7640419232551
12728000,-71.6590181094194
12736000,-71.9669438430332
12744000,-69.9871179961592
12752000,-70.1070282837011
12760000,-69.8838236606982
12768000,-70.1728606712057
12776000,-72.0318253084714
12784000,-74.5950385190167
12792000,-71.2180655218557
12800000,-71.5334258838287
12808000,-72.2857619173106
12816000,-70.6924187704579
12824000,-73.7657026957264
12832000,-70.7987462965013
12840000,-69.6321791439561
12848000,-68.8001763796369
12856000,-71.3668094279024
12864000,-74.1228622252199
12872000,-72.7175804007918
12880000,-73.2522085460245
12888000,-73.550412297366
12896000,-73.3386737761541
12904000,-73.4401712638346
12912000,-73.3361703851985
12920000,-70.205376353023
12928000,-70.8514555994316
12936000,-70.3869892829057
12944000,-72.6657838654683
12952000,-72.7411071373997
12960000,-70.0135816763717
12968000,-72.5982290640836
12976000,-71.8747120230406
12984000,-73.6707796460708
12992000,-75.2365205574257
13000000,-74.2683508789135
13008000,-74.4512048062926
13016000,-73.3900033592785
13024000,-73.2851748030402
13032000,-72.1590239129514
13040000,-70.7026521207807
13048000,-70.1781838256475
13056000,-72.5232429338915
13064000,-72.2471963561691
13072000,-70.7758107644851
13080000,-71.9722746734786
13088000,-70.4633805591312
13096000,-71.7860355600127
13104000,-73.7279139762154
13112000,-73.9815014574725
13120000,-71.033777812358
13128000,-73.1419041013547
13136000,-70.6773303925463
13144000,-72.2380701099447
13152000,-71.0126132376376
13160000,-73.2664852836801
13168000,-73.6146098954952
13176000,-72.7115938285989
13184000,-73.4906188429579
13192000,-75.1891636808668
13200000,-74.9895852856794
13208000,-74.3005905724309
13216000,-75.6919506911866
13224000,-74.1552246513653
13232000,-70.1289335554406
13240000,-70.4516340144919
13248000,-70.3118638411219
13256000,-71.0312424140747
13264000,-71.3536469811884
13272000,-69.1041779016507
13280000,-69.8140683802864
13288000,-71.4506763289479
13296000,-74.8507202821726
13304000,-74.4206536266684
13312000,-73.8034861768547
13320000,-73.8367043294598
13328000,-73.632563892179
13336000,-71.3182679788803
13344000,-71.4308935056949
13352000,-70.2679369217653
13360000,-72.5323974163741
13368000,-73.0684966097606
13376000,-71.0004048699822
13384000,-73.1333850679603
13392000,-72.3601428765997
13400000,-70.9511127307217
13408000,-72.6023992600527
13416000,-73.9898972524579
13424000,-70.9838686433811
13432000,-70.4296046368606
13440000,-72.2928116100031
13448000,-70.8086344209638
13456000,-71.5477519845769
13464000,-70.5239253605237
13472000,-73.4003350037397
13480000,-71.3084362568974
13488000,-74.542459571368
13496000,-70.8096156640921
13504000,-73.4044054615629
13512000,-72.7651972375965
13520000,-73.7800816736985
13528000,-71.9557978003472
13536000,-71.0217261006017
13544000,-71.4607536367429
13552000,-70.8965323510555
13560000,-71.1007659491767
13568000,-71.258394467004
13576000,-73.7836341890876
13584000,-73.6283597827878
13592000,-72.8930687465819
13600000,-73.5582861097117
13608000,-70.7506010141708
13616000,-69.5098469336031
13624000,-69.841430813459
13632000,-72.9206649695166
13640000,-73.2010836557284
13648000,-73.3922954661707
13656000,-72.6589635567936
13664000,-71.5983790142622
13672000,-71.0797495729081
13680000,-71.8630721769459
13688000,-73.0254572053767
13696000,-70.3396217929442
13704000,-71.2641187523007
13712000,-72.2527833477328
13720000,-71.5855574574136
13728000,-74.0562600949119
13736000,-71.6820351428412
13744000,-73.1530378708927
13752000,-74.1476403885813
13760000,-72.0045397861976
13768000,-70.4878601279651
13776000,-69.6021131074685
13784000,-70.9893140009051
13792000,-70.7153988284546
13800000,-72.0114901632044
13808000,-71.1327319083973
13816000,-70.7671452792253
13824000,-72.8367529099021
13832000,-72.3062425405478
13840000,-73.3562084288719
13848000,-69.1579847379874
13856000,-70.4679596068988
13864000,-72.5209967883849
13872000,-73.0989470299698
13880000,-71.5974410593362
13888000,-70.1925429504791
13896000,-70.5770775424645
13904000,-71.4934301459203
13912000,-69.0845390448557
13920000,-69.9863549410962
13928000,-72.1073470826098
13936000,-71.2783603399729
13944000,-73.0610089715422
13952000,-71.678950211721
13960000,-71.8018499756869
13968000,-72.3696976256709
13976000,-71.9316285037882
13984000,-72.1122020338571
13992000,-72.6894823355303
14000000,-71.637801874294
