Trace
Swept SA
A.12.13,N9010A
513 B25 DP2 RTL ,01
Segment,0
Number of Points,1001
Sweep Time,0.044
Start Frequency,6000000
Stop Frequency,14000000
Average Count,0
Average Type,LogPower(Video)
RBW,9100
RBW Filter,Gaussian
RBW Filter BW,3dB
VBW,9100
Sweep Type,Swept
X Axis Scale,Lin
PreAmp State,Off
PreAmp Band,Low
Trigger Source,Periodic
Trigger Level,1
Trigger Slope,Positive
Trigger Delay,0
Phase Noise Optimization,Narrow
Swept If Gain,Low
FFT If Gain,Autorange
RF Coupling,AC
FFT Width,411900
Ext Ref,10000000
Input,RF
RF Calibrator,Off
Attenuation,10
Ref Level Offset,0
External Gain,0
Trace Type,Average
Detector,Sample
Trace Math,Off
Trace Math Oper1,Trace5
Trace Math Oper2,Trace6
Trace Math Offset,0
Trace Name,Trace1
X Axis Units,Hz
Y Axis Units,dBm
DATA
6000000,-66.9565895772346
6008000,-67.0549472479582
6016000,-66.6985322422235
6024000,-67.4582384716677
6032000,-66.3087597232612
6040000,-66.3187169808331
6048000,-66.2698815063846
6056000,-66.6089452690755
6064000,-66.8458766095329
6072000,-67.9267327743449
6080000,-68.3089912557537
6088000,-67.953858094431
6096000,-66.1485178294785
6104000,-65.8421960043089
6112000,-66.1893826724031
6120000,-65.2147868517586
6128000,-66.9309914642276
6136000,-67.3406885014897
6144000,-65.9679963072553
6152000,-65.5629917295655
6160000,-66.8268661479819
6168000,-67.2968660916411
6176000,-67.2867957745446
6184000,-66.6690905487462
6192000,-65.6184609898964
6200000,-64.9428201482787
6208000,-65.1718030577459
6216000,-66.093965014084
6224000,-65.8874506679864
6232000,-66.2457054876736
6240000,-65.3473807282793
6248000,-66.6623095711744
6256000,-66.9341511791116
6264000,-65.8976575184012
6272000,-65.9279869524397
6280000,-66.0174895495132
6288000,-66.85253599541
6296000,-66.6640490337619
6304000,-66.5246622135002
6312000,-66.1854059938552
6320000,-67.1058331431439
6328000,-67.4400150414314
6336000,-67.0772022590698
6344000,-66.669062698535
6352000,-67.2501802461208
6360000,-66.914486542611
6368000,-65.903910997011
6376000,-66.630650367069
6384000,-67.4400434226731
6392000,-67.0878153385109
6400000,-66.9027012404764
6408000,-66.1696638467175
6416000,-67.6908943870695
6424000,-67.1437966170493
6432000,-66.3567547769254
6440000,-66.6280101393822
6448000,-65.8899913161595
6456000,-65.9545956820056
6464000,-66.1586325854906
6472000,-66.6145809381154
6480000,-66.9624818128676
6488000,-67.5675548253886
6496000,-67.3137621893578
6504000,-67.5576982496199
6512000,-66.156040483651
6520000,-65.5329978205798
6528000,-66.1761562251246
6536000,-67.9483643048956
6544000,-68.0291261105156
6552000,-66.1643518130803
6560000,-65.2890302300413
6568000,-65.8433610931637
6576000,-66.7673407498926
6584000,-66.9291669739821
6592000,-67.5854948128631
6600000,-66.7674717140233
6608000,-66.7319635991102
6616000,-66.2027084633663
6624000,-65.7459823387532
6632000,-66.255599794987
6640000,-67.0741060296577
6648000,-66.0314346359108
6656000,-66.3544741397951
6664000,-68.134695604814
6672000,-68.2964495149915
6680000,-66.7147012648076
6688000,-66.1572233932992
6696000,-66.1873843279678
6704000,-66.3567542997569
6712000,-66.5726196407179
6720000,-67.1249040433407
6728000,-66.5193203664579
6736000,-66.3180090076836
6744000,-66.1143670998419
6752000,-65.3523341980958
6760000,-67.031160091263
6768000,-67.7749922115455
6776000,-67.2878705210047
6784000,-67.817488636897
6792000,-67.3517661162258
6800000,-65.4946492710605
6808000,-67.3090871529673
6816000,-67.3077127334429
6824000,-66.3347614140611
6832000,-66.7020215347319
6840000,-66.5491983350397
6848000,-67.2982886236832
6856000,-66.9588584557444
6864000,-66.8333161983965
6872000,-66.909350098692
6880000,-65.7650136159045
6888000,-65.9971335037672
6896000,-66.456138423212
6904000,-66.1172745306304
6912000,-66.2704271839122
6920000,-66.6457380613008
6928000,-66.4742682385232
6936000,-67.5443981812267
6944000,-66.8716198907224
6952000,-66.1953530934435
6960000,-66.1766925231429
6968000,-65.8094070287629
6976000,-66.8845943999407
6984000,-66.3855296273532
6992000,-65.9277288352506
7000000,-66.5834724230283
7008000,-66.6174492241501
7016000,-65.851630542621
7024000,-65.9074050911458
7032000,-66.1683899280906
7040000,-67.5050424621744
7048000,-67.3659255793724
7056000,-66.1355065018619
7064000,-65.4518927901258
7072000,-66.1222229378442
7080000,-65.8617376931587
7088000,-64.9610535517702
7096000,-65.0041268108462
7104000,-66.2196975740797
7112000,-67.3257370798602
7120000,-66.8545052880223
7128000,-66.5139722635024
7136000,-67.194545627023
7144000,-66.9368403001901
7152000,-65.3052456600696
7160000,-66.2929141861968
7168000,-66.431393090117
7176000,-66.3849691643895
7184000,-65.2841032450874
7192000,-64.9761728285587
7200000,-65.1308003884044
7208000,-65.8359734604648
7216000,-65.0991911044883
7224000,-66.1888314157983
7232000,-66.03096262975
7240000,-66.8658862976259
7248000,-67.1735085985558
7256000,-66.4116795433459
7264000,-66.8169087077341
7272000,-66.4386371655456
7280000,-67.1591764503747
7288000,-66.4106745314866
7296000,-64.84466533595
7304000,-65.340005094107
7312000,-65.1173215828758
7320000,-66.3285082159435
7328000,-67.2579013044866
7336000,-65.4708142343614
7344000,-65.2134898064838
7352000,-64.6310619045222
7360000,-65.4475046134753
7368000,-65.8615254537365
7376000,-66.2687742161884
7384000,-66.0211516798107
7392000,-66.432893840983
7400000,-68.2781058242772
7408000,-66.9084188843674
7416000,-66.218548908901
7424000,-66.8102208228294
7432000,-66.898186581215
7440000,-66.6561082977508
7448000,-66.0303928942076
7456000,-65.2914385510059
7464000,-65.7319137975924
7472000,-67.0015357205904
7480000,-65.1641907639485
7488000,-64.4872917829536
7496000,-62.7879243847098
7504000,-63.4528846710804
7512000,-65.8407160278928
7520000,-66.8500160121866
7528000,-66.1358416027851
7536000,-66.0897309728047
7544000,-66.6151176676403
7552000,-66.4666208613194
7560000,-65.7713341461518
7568000,-66.2985402817197
7576000,-66.5663001537991
7584000,-65.2571584488851
7592000,-64.178600476716
7600000,-64.24098355524
7608000,-65.8602117811359
7616000,-65.8622907831744
7624000,-67.1327652012151
7632000,-66.4850195710824
7640000,-66.3669775660186
7648000,-66.4639698749997
7656000,-66.016421943238
7664000,-65.9582885985867
7672000,-66.247532220212
7680000,-65.4603979775653
7688000,-64.9333033963327
7696000,-64.8575653356417
7704000,-67.2911575355765
7712000,-67.533746365199
7720000,-66.6603694739558
7728000,-67.2755730347121
7736000,-67.0865122896411
7744000,-66.4813448831197
7752000,-65.9903528018688
7760000,-67.1884671295917
7768000,-68.0780434820573
7776000,-67.3440035755289
7784000,-65.9636592618422
7792000,-64.7613643853446
7800000,-65.150521030032
7808000,-66.1528073097715
7816000,-66.1415430672152
7824000,-65.6072053778322
7832000,-67.1552779126386
7840000,-68.3590265733822
7848000,-67.4966378988776
7856000,-66.6023191172745
7864000,-66.5940172274359
7872000,-66.3519114824461
7880000,-66.1711901670181
7888000,-66.4347437952687
7896000,-66.6381734190454
7904000,-66.4709003439569
7912000,-66.2400513744633
7920000,-66.8300399738351
7928000,-66.3287679256279
7936000,-65.388271401928
7944000,-66.4413197821876
7952000,-66.2548520973206
7960000,-65.930637799906
7968000,-66.3530892553688
7976000,-66.8733541187955
7984000,-66.5192798672227
7992000,-65.7092243198822
8000000,-65.8767025833339
8008000,-65.4105303015371
8016000,-64.8502899533086
8024000,-64.5670347053101
8032000,-65.5539732770558
8040000,-65.9887811293829
8048000,-67.4149888045662
8056000,-66.1521823859492
8064000,-65.5251030389821
8072000,-65.8431151156787
8080000,-67.5160525955079
8088000,-68.0001006381843
8096000,-66.8115920145834
8104000,-64.9072226963934
8112000,-66.5783849883924
8120000,-66.4717779037063
8128000,-65.6036419868945
8136000,-65.2181127248496
8144000,-66.7044022803534
8152000,-65.5756095965453
8160000,-65.8204406321909
8168000,-66.8947342204183
8176000,-66.8066973879421
8184000,-66.3610887121071
8192000,-65.786677203614
8200000,-65.6424949780856
8208000,-65.9378742695011
8216000,-65.684097409472
8224000,-65.1093205231292
8232000,-66.1854498803821
8240000,-65.6313522140629
8248000,-65.8966931628534
8256000,-65.494102801353
8264000,-66.2704392977315
8272000,-66.2949529087072
8280000,-67.4280300958093
8288000,-68.2668926353021
8296000,-68.130708633997
8304000,-67.4601540396928
8312000,-66.9904384028273
8320000,-66.253075862045
8328000,-65.8707245044406
8336000,-66.3017125387361
8344000,-66.1350457102704
8352000,-65.6229457852243
8360000,-67.9474388819729
8368000,-67.4572238848505
8376000,-65.8632179605634
8384000,-65.0213286196077
8392000,-65.842855627128
8400000,-66.0733848274939
8408000,-66.0585542344353
8416000,-66.7671998900418
8424000,-65.8259031065079
8432000,-66.5451668515893
8440000,-65.8857196901135
8448000,-66.5434848885439
8456000,-66.9454873038922
8464000,-68.417151183367
8472000,-69.5070577957582
8480000,-67.6151683952288
8488000,-67.7282971224443
8496000,-66.5235674103557
8504000,-66.1683143921898
8512000,-66.0073936895115
8520000,-66.6240271927595
8528000,-67.6914406210529
8536000,-66.8114396814125
8544000,-66.3770762171357
8552000,-67.4867220409445
8560000,-66.6245148876058
8568000,-66.9367076384208
8576000,-65.7613971904752
8584000,-65.5840992357826
8592000,-66.5729409333302
8600000,-65.621856109002
8608000,-66.69147983255
8616000,-66.3558157173937
8624000,-66.9031539157892
8632000,-66.9799292596957
8640000,-66.9113841987388
8648000,-67.1035049152185
8656000,-65.5248527225558
8664000,-67.4832526288252
8672000,-66.6168728637143
8680000,-66.7650142194538
8688000,-67.3732797757206
8696000,-66.5638170954707
8704000,-65.8021929143431
8712000,-65.4134270587574
8720000,-65.7991866320661
8728000,-65.7806045950124
8736000,-65.6554284301023
8744000,-66.1005468665356
8752000,-64.9502086910016
8760000,-65.1033218898287
8768000,-65.9069448126277
8776000,-64.5667824311893
8784000,-66.0484582578774
8792000,-66.0068773413523
8800000,-65.415261434284
8808000,-66.0707468888302
8816000,-66.7993870857756
8824000,-66.5135029732502
8832000,-65.4574981816897
8840000,-65.4183137471042
8848000,-65.2471707923536
8856000,-67.6509126792767
8864000,-67.8013333353727
8872000,-68.122460030266
8880000,-67.3874215596487
8888000,-67.5588226154485
8896000,-68.0589540819965
8904000,-67.7520523809204
8912000,-66.4646543027547
8920000,-67.1987885831888
8928000,-66.422621654471
8936000,-69.120990467808
8944000,-66.8889348743728
8952000,-65.5383190496243
8960000,-65.445438171405
8968000,-67.0038808120306
8976000,-67.2045992251613
8984000,-67.2632471821799
8992000,-67.1590955098538
9000000,-68.6315850606954
9008000,-67.5977093648347
9016000,-67.4628929832208
9024000,-68.3012279633117
9032000,-68.3790855651194
9040000,-65.801053074326
9048000,-65.1011536553365
9056000,-65.0917335416304
9064000,-65.5211914265101
9072000,-65.8121446952375
9080000,-66.257512416727
9088000,-66.5878113671482
9096000,-67.0405359343807
9104000,-65.9852718907067
9112000,-65.0575177093238
9120000,-66.3907316252992
9128000,-66.5036351307195
9136000,-65.7411257681131
9144000,-67.2419927862101
9152000,-66.8534407530874
9160000,-66.2546820707809
9168000,-66.2708429475551
9176000,-67.2490504976825
9184000,-68.3704917017703
9192000,-68.0981460777695
9200000,-67.2117134565731
9208000,-66.406550195644
9216000,-67.2394396508376
9224000,-68.7104689994549
9232000,-67.624236352497
9240000,-66.94191222655
9248000,-66.8245762497997
9256000,-66.492505949674
9264000,-65.4710721739179
9272000,-64.1145235848722
9280000,-65.4868819433165
9288000,-67.145697490422
9296000,-66.5278155338155
9304000,-66.8938842811969
9312000,-65.8425484105423
9320000,-65.8894804772808
9328000,-66.2074069868698
9336000,-66.0746324738485
9344000,-66.5933163269057
9352000,-65.6153099404342
9360000,-66.7778411521278
9368000,-67.1363235314434
9376000,-67.1429078400047
9384000,-66.8991582100448
9392000,-67.623928579318
9400000,-70.2656254336346
9408000,-67.9055865513008
9416000,-67.6488383992281
9424000,-68.0985827572842
9432000,-67.2205772737169
9440000,-67.2217751777062
9448000,-67.3440832632323
9456000,-66.6862459501033
9464000,-66.3636759831586
9472000,-66.1455021140854
9480000,-66.9547501410426
9488000,-66.9152428899853
9496000,-66.3035519777202
9504000,-65.4444906030778
9512000,-65.952070761083
9520000,-66.0430795095568
9528000,-66.1635491145933
9536000,-65.9210090814598
9544000,-65.4834970268372
9552000,-65.3891687102148
9560000,-66.2766946815846
9568000,-66.4593115637615
9576000,-66.9370354155411
9584000,-66.0750840699436
9592000,-65.633673305614
9600000,-66.2355330345011
9608000,-65.4714955465801
9616000,-65.9385755429125
9624000,-65.4584372295218
9632000,-66.6988838492736
9640000,-67.7146338038891
9648000,-66.4806734640395
9656000,-67.6643589891569
9664000,-67.8874908536687
9672000,-67.2281582710967
9680000,-67.0635312614843
9688000,-66.436352772356
9696000,-65.7681687543704
9704000,-66.7048096003706
9712000,-66.5803035377432
9720000,-65.9540423598085
9728000,-65.8355922551706
9736000,-66.3639820385584
9744000,-67.2885165345738
9752000,-66.8464018146257
9760000,-66.6182056069289
9768000,-67.3588283306048
9776000,-67.4630777812494
9784000,-66.3851104944575
9792000,-66.0296017595158
9800000,-65.452579145253
9808000,-65.7791384322486
9816000,-67.1189306386433
9824000,-65.4684320212173
9832000,-65.1478354322749
9840000,-65.2577074604155
9848000,-66.67354715067
9856000,-67.8934275290073
9864000,-67.1793954181801
9872000,-65.7766622856176
9880000,-66.6524124095738
9888000,-66.6175333312068
9896000,-66.3819292694328
9904000,-65.8560553021093
9912000,-65.173050280713
9920000,-65.1622128744855
9928000,-65.5176627347544
9936000,-65.1768014341725
9944000,-66.0323342619612
9952000,-65.8558598493113
9960000,-66.7464652993923
9968000,-64.6919248902565
9976000,-63.4744120557297
9984000,-62.5122530871628
9992000,-58.6111810372613
10000000,-55.115479183802
10008000,-57.2502511428697
10016000,-61.4733432402005
10024000,-63.3942597925825
10032000,-64.357404838373
10040000,-64.7909004107058
10048000,-66.1902055195273
10056000,-66.1769081305971
10064000,-66.0762782509579
10072000,-65.8983703324883
10080000,-66.4294788347075
10088000,-67.3724758891899
10096000,-67.2166488866364
10104000,-66.7737354648155
10112000,-66.5616357160798
10120000,-66.1541190476106
10128000,-67.0599832856449
10136000,-66.5548595344991
10144000,-66.5353487733542
10152000,-66.841245502729
10160000,-66.4534005131412
10168000,-65.4781831975077
10176000,-66.1466581477968
10184000,-67.1663503270076
10192000,-65.8056557278463
10200000,-65.4474941375196
10208000,-66.4242735209103
10216000,-67.085251037975
10224000,-66.8322226198739
10232000,-67.7590846204863
10240000,-65.4739654348628
10248000,-66.1494303649866
10256000,-66.0757063759185
10264000,-65.4247982709436
10272000,-66.8752704710492
10280000,-66.2905809047859
10288000,-67.9112106996584
10296000,-66.7643378749269
10304000,-66.9107425078947
10312000,-66.7835058637066
10320000,-67.5663587719407
10328000,-67.4044629572973
10336000,-66.8135653520492
10344000,-66.1657467165625
10352000,-66.2744186370748
10360000,-65.4526941925133
10368000,-64.8900077551995
10376000,-66.8406616215545
10384000,-66.8977616270652
10392000,-67.0722522891033
10400000,-67.2889409022046
10408000,-67.2984302492183
10416000,-68.2692692797037
10424000,-68.3376207909173
10432000,-66.6547909545586
10440000,-66.6351814913688
10448000,-67.1917388080571
10456000,-68.3948061931379
10464000,-66.905570954162
10472000,-66.2278344508117
10480000,-66.3671914205308
10488000,-67.163079075103
10496000,-66.4704502477605
10504000,-67.3953472106832
10512000,-67.1179702410069
10520000,-66.7258625111671
10528000,-65.3866625994945
10536000,-65.8642455470223
10544000,-66.2543007897472
10552000,-66.7973637887875
10560000,-67.8767548042939
10568000,-68.6782879693928
10576000,-67.893236871475
10584000,-67.8245002915613
10592000,-66.7599213467432
10600000,-66.9615093457901
10608000,-66.7420799553287
10616000,-65.6539945062164
10624000,-66.2283144807417
10632000,-66.7086607085066
10640000,-65.7796456511413
10648000,-65.7448866507224
10656000,-65.952376503272
10664000,-66.7006112128933
10672000,-66.088288115055
10680000,-67.5501783309357
10688000,-67.213773148319
10696000,-67.6297242301256
10704000,-65.970331898605
10712000,-66.0057058510963
10720000,-65.4070734534636
10728000,-65.219545392791
10736000,-66.531759035082
10744000,-65.784137838442
10752000,-65.9225138265272
10760000,-66.0613434681103
10768000,-66.4523096959819
10776000,-66.7274963735209
10784000,-67.3985687035806
10792000,-66.8793818045706
10800000,-66.0322115012603
10808000,-66.9258691218765
10816000,-67.4310959366707
10824000,-68.0124334070061
10832000,-66.8481611758483
10840000,-66.8739529548776
10848000,-66.2315095341485
10856000,-66.8651051615698
10864000,-67.5415034929016
10872000,-66.9641737977022
10880000,-66.5559631783705
10888000,-67.505204305828
10896000,-69.3299568758018
10904000,-67.8802551708301
10912000,-66.429687518307
10920000,-66.893446948936
10928000,-67.0610675068265
10936000,-66.6238491629063
10944000,-65.9967207621908
10952000,-66.9567390029937
10960000,-68.6323381317821
10968000,-68.5704745521199
10976000,-67.4265377017677
10984000,-66.3123225750545
10992000,-65.5994035841492
11000000,-66.2362824679378
11008000,-66.3896189680511
11016000,-66.7572509000096
11024000,-66.6460236710458
11032000,-66.931480227574
11040000,-66.9526149799796
11048000,-67.9204660715942
11056000,-67.4253282684901
11064000,-66.1335877251916
11072000,-67.1126509701028
11080000,-67.3506390652869
11088000,-68.3044636981362
11096000,-66.141572669116
11104000,-67.2283538504677
11112000,-67.2333198535378
11120000,-66.2535045871326
11128000,-66.4883485972044
11136000,-67.2264672454287
11144000,-67.6494455017314
11152000,-67.4169994523333
11160000,-67.4339520716893
11168000,-66.5050621545977
11176000,-66.0694573149347
11184000,-66.0510136511992
11192000,-67.2646530612614
11200000,-67.4789990316998
11208000,-67.1973068064315
11216000,-67.3086533972092
11224000,-67.1371247233157
11232000,-66.3402025174125
11240000,-65.6795063583704
11248000,-66.1573380822645
11256000,-66.5950281578834
11264000,-67.4431957574125
11272000,-65.6076198380394
11280000,-65.2369896702864
11288000,-65.8547087756011
11296000,-65.1595993363234
11304000,-65.7130244261547
11312000,-67.6496967834966
11320000,-67.2078566300237
11328000,-66.7808110862695
11336000,-65.770544931301
11344000,-67.2525656061978
11352000,-67.7832046765601
11360000,-67.8760581116785
11368000,-66.904849356131
11376000,-67.8940618269705
11384000,-67.302903831573
11392000,-66.7197517294485
11400000,-66.1987993102967
11408000,-66.7001030739136
11416000,-67.0627517454289
11424000,-68.4110788122531
11432000,-67.4910054726893
11440000,-66.8449301610473
11448000,-67.3936082987655
11456000,-66.9812550423197
11464000,-67.3736727572223
11472000,-67.7279115672885
11480000,-67.3198187155405
11488000,-67.0725559842303
11496000,-67.6157408372269
11504000,-67.4988220785173
11512000,-67.3915393764934
11520000,-66.9241644346526
11528000,-67.5464089656859
11536000,-67.9409723230491
11544000,-67.3824590840482
11552000,-66.6859985136823
11560000,-68.3607775060749
11568000,-67.8053527538873
11576000,-67.3599643711668
11584000,-66.705413047961
11592000,-66.911834608716
11600000,-67.0109880142435
11608000,-66.8358789063313
11616000,-67.9710517321667
11624000,-67.652164722693
11632000,-66.8469147190247
11640000,-67.7177428087561
11648000,-67.6246297775118
11656000,-66.716335413194
11664000,-67.9476370677831
11672000,-67.3133955181903
11680000,-66.3142022065774
11688000,-66.1206218061582
11696000,-67.5651471638681
11704000,-66.5970971586047
11712000,-67.8126508552268
11720000,-67.9902102317403
11728000,-66.7737253645094
11736000,-67.5907199903928
11744000,-67.5981796511737
11752000,-67.4487186177923
11760000,-67.5938792893747
11768000,-68.1498917688696
11776000,-67.2926416809941
11784000,-66.9943141476092
11792000,-68.6439602018726
11800000,-66.8106202399526
11808000,-66.2408767697499
11816000,-66.5392307902493
11824000,-66.9590477327721
11832000,-66.2275365817387
11840000,-68.2045473360581
11848000,-66.3624553221281
11856000,-67.1644708041625
11864000,-66.7665090681597
11872000,-68.2903449877524
11880000,-67.2743155361178
11888000,-67.1889159413412
11896000,-67.2564153336258
11904000,-67.2795774722302
11912000,-66.1007515091817
11920000,-66.5753321597337
11928000,-68.6774265269766
11936000,-67.7110792004643
11944000,-66.3001303255909
11952000,-66.7422556532627
11960000,-67.0819242029986
11968000,-66.8310839151162
11976000,-68.8362068590342
11984000,-68.1701969540967
11992000,-67.6178435798951
12000000,-68.7704797894527
12008000,-69.419626626496
12016000,-67.3024136274532
12024000,-67.7021687505732
12032000,-68.7186078573545
12040000,-69.6153554008475
12048000,-67.8046209293827
12056000,-65.9203108672486
12064000,-67.1096161824093
12072000,-66.0761448947017
12080000,-67.4062987357837
12088000,-67.8746458984709
12096000,-67.191929558989
12104000,-67.5366182541255
12112000,-69.2385207764489
12120000,-67.5523437274955
12128000,-66.1157157656499
12136000,-66.5860291263131
12144000,-67.3304747073533
12152000,-66.925317256448
12160000,-68.6860076596484
12168000,-66.8839729438261
12176000,-66.5179079970279
12184000,-67.3194529433506
12192000,-68.0464408908431
12200000,-67.042028456287
12208000,-66.5801080459492
12216000,-66.2526766056121
12224000,-67.1611843821719
12232000,-66.528470827643
12240000,-67.4476606876437
12248000,-68.1390355358883
12256000,-67.2360164321385
12264000,-66.3891613319059
12272000,-66.5031123045111
12280000,-68.6158235514648
12288000,-67.5284752849435
12296000,-67.7333412493327
12304000,-67.446328492064
12312000,-67.1383955671493
12320000,-65.8343458548196
12328000,-66.1830560921102
12336000,-66.0692677199797
12344000,-65.8873398659831
12352000,-66.0935067394449
12360000,-67.0437275224937
12368000,-67.8819573967045
12376000,-66.4173148546716
12384000,-66.5990964133953
12392000,-67.5102107785655
12400000,-65.882647764101
12408000,-67.6539877634647
12416000,-67.63242804187
12424000,-67.7348859923344
12432000,-68.7400360180179
12440000,-68.7986548281953
12448000,-67.9018770006672
12456000,-67.532009422408
12464000,-67.338906881874
12472000,-66.8509521028312
12480000,-66.6865921205643
12488000,-66.3826800887631
12496000,-64.5808338334202
12504000,-64.4970627924962
12512000,-66.4033105688497
12520000,-67.4004558412885
12528000,-68.0689711117026
12536000,-68.1963166615354
12544000,-68.1167488088698
12552000,-68.0931074832021
12560000,-67.0832550540703
12568000,-67.184888130305
12576000,-67.5856407892992
12584000,-68.283323162057
12592000,-67.062324059195
12600000,-68.1193945707481
12608000,-68.2857160484916
12616000,-65.8147383466327
12624000,-66.4635738960448
12632000,-67.5055318710301
12640000,-67.2161874578877
12648000,-66.715691153143
12656000,-67.4771216016888
12664000,-67.8487965390682
12672000,-68.4565675605548
12680000,-68.5873462373761
12688000,-68.0458906843456
12696000,-69.1520713504448
12704000,-68.9690170841917
12712000,-69.5920151719455
12720000,-68.1471893759912
12728000,-67.6074003660014
12736000,-67.4620455406564
12744000,-67.7901875461151
12752000,-67.9358038105482
12760000,-67.6150312867792
12768000,-66.6761260812458
12776000,-66.3844963735984
12784000,-66.2805756299821
12792000,-68.3639031179329
12800000,-68.7997031170388
12808000,-67.4224825684748
12816000,-68.3874078624898
12824000,-67.5569953359864
12832000,-67.6764936615371
12840000,-67.7477611677098
12848000,-68.2531722452816
12856000,-67.8152391567472
12864000,-66.8531879702022
12872000,-67.4681343572139
12880000,-67.2547686075712
12888000,-66.5075450180003
12896000,-66.6757949435258
12904000,-67.779463171654
12912000,-67.1757471025315
12920000,-67.9185896660912
12928000,-70.0290268101715
12936000,-67.0718722396222
12944000,-67.9252134810506
12952000,-68.3256921319802
12960000,-67.371628965322
12968000,-67.1821351803693
12976000,-68.2225370083449
12984000,-67.8119867883172
12992000,-66.8302825505211
13000000,-66.5666886139683
13008000,-65.9774232076615
13016000,-66.3855245455358
13024000,-66.6515964402296
13032000,-67.2287598955348
13040000,-67.056678211554
13048000,-66.9668131228051
13056000,-67.4774098097182
13064000,-67.2456701955039
13072000,-66.9657086866181
13080000,-67.473562955618
13088000,-67.9946023813163
13096000,-67.9449954251918
13104000,-67.961812737599
13112000,-69.5507209491061
13120000,-68.1480511738903
13128000,-67.4158130116202
13136000,-69.0213753007876
13144000,-68.1195313145666
13152000,-68.4166925098604
13160000,-67.5944342006187
13168000,-66.4622049384046
13176000,-66.6775570900168
13184000,-67.2587500120144
13192000,-67.6787587012278
13200000,-67.7527471584246
13208000,-68.1644226464582
13216000,-68.5269286864822
13224000,-67.7808849935331
13232000,-67.8055071355031
13240000,-67.480432350084
13248000,-68.189095717096
13256000,-67.9089981883063
13264000,-66.3608390329089
13272000,-67.3617084701204
13280000,-69.4962876418258
13288000,-69.6842734673808
13296000,-68.5254732356945
13304000,-68.9784520840792
13312000,-68.8411510353332
13320000,-66.9809427458387
13328000,-66.6078372315822
13336000,-66.8191656657754
13344000,-67.6273249197417
13352000,-69.0951778030119
13360000,-67.5695187118693
13368000,-67.2533840278149
13376000,-67.4100420474986
13384000,-67.9355927773194
13392000,-68.2365781391021
13400000,-68.2670611809429
13408000,-67.2540031162698
13416000,-68.0128003612477
13424000,-68.7152869082405
13432000,-68.7247007004421
13440000,-68.1995513599848
13448000,-69.1351923232943
13456000,-68.7986673811332
13464000,-68.3711509249316
13472000,-68.0009229641469
13480000,-68.4442192578759
13488000,-69.0197982076575
13496000,-68.6091441909172
13504000,-68.298745120096
13512000,-68.3414276628904
13520000,-67.0870902550177
13528000,-70.2395772251626
13536000,-67.6497476521128
13544000,-67.5099879647466
13552000,-67.5003929686453
13560000,-67.8619175685938
13568000,-68.0938111933627
13576000,-67.8967054901094
13584000,-67.5957903203243
13592000,-68.0950928548417
13600000,-68.0903122381711
13608000,-67.5452433685053
13616000,-67.5296875693031
13624000,-68.4235083189927
13632000,-67.6389481125192
13640000,-66.2766088809616
13648000,-67.8021671758629
13656000,-67.4410409106386
13664000,-67.7559511138227
13672000,-67.8766234951078
13680000,-66.5449959553677
13688000,-67.6746853998187
13696000,-66.6619502850127
13704000,-67.7853132765948
13712000,-68.3064281856694
13720000,-67.490271109658
13728000,-67.9116230816401
13736000,-67.5517734719294
13744000,-66.8501488824441
13752000,-66.7069555019891
13760000,-66.8814412659888
13768000,-67.7321177671393
13776000,-69.3510042670797
13784000,-68.9492877146599
13792000,-68.2791357964274
13800000,-67.2990308890236
13808000,-66.9788426561668
13816000,-66.9855111043827
13824000,-66.584723973597
13832000,-67.3417043731505
13840000,-68.0230690935332
13848000,-66.686877805646
13856000,-66.8005517020606
13864000,-67.4985756053278
13872000,-67.0617244300002
13880000,-67.3238966614722
13888000,-68.098899659333
13896000,-67.822550085992
13904000,-68.4637155221574
13912000,-67.162474242884
13920000,-66.5730401678253
13928000,-68.8808184736952
13936000,-69.1956334077691
13944000,-68.1140618962022
13952000,-67.7271052017519
13960000,-68.2011878354634
13968000,-68.1211503881808
13976000,-67.8154671324019
13984000,-67.5399255342949
13992000,-67.3499188872226
14000000,-67.0128349266873
