Trace
Swept SA
A.12.13,N9010A
513 B25 DP2 RTL ,01
Segment,0
Number of Points,1001
Sweep Time,0.044
Start Frequency,6000000
Stop Frequency,14000000
Average Count,0
Average Type,LogPower(Video)
RBW,9100
RBW Filter,Gaussian
RBW Filter BW,3dB
VBW,9100
Sweep Type,Swept
X Axis Scale,Lin
PreAmp State,Off
PreAmp Band,Low
Trigger Source,Periodic
Trigger Level,1
Trigger Slope,Positive
Trigger Delay,0
Phase Noise Optimization,Narrow
Swept If Gain,Low
FFT If Gain,Autorange
RF Coupling,AC
FFT Width,411900
Ext Ref,10000000
Input,RF
RF Calibrator,Off
Attenuation,10
Ref Level Offset,0
External Gain,0
Trace Type,Average
Detector,Sample
Trace Math,Off
Trace Math Oper1,Trace5
Trace Math Oper2,Trace6
Trace Math Offset,0
Trace Name,Trace1
X Axis Units,Hz
Y Axis Units,dBm
DATA
6000000,-76.2702032686828
6008000,-76.3933777949075
6016000,-75.4054512027279
6024000,-74.8906715287543
6032000,-72.2779369652716
6040000,-72.2927246057033
6048000,-72.4113327664193
6056000,-71.3644164571747
6064000,-73.025793751145
6072000,-73.5834329570535
6080000,-72.6729501831274
6088000,-72.6442378239444
6096000,-70.8427997250915
6104000,-71.7283877197173
6112000,-74.3440848483775
6120000,-70.3640077748327
6128000,-72.6261880721439
6136000,-72.4867058467798
6144000,-74.4813859308201
6152000,-71.8961442591405
6160000,-73.0323807673687
6168000,-74.6141243262051
6176000,-73.7069600849805
6184000,-74.145452873285
6192000,-74.5339213483188
6200000,-74.1282570000529
6208000,-76.8135647391819
6216000,-75.139690551974
6224000,-75.5404033578239
6232000,-75.5453819829316
6240000,-74.2845928175059
6248000,-71.3250479441826
6256000,-71.2701818896361
6264000,-73.5209893655044
6272000,-75.0199478683948
6280000,-74.0696519440233
6288000,-74.7413483164003
6296000,-72.4638618974849
6304000,-73.4432559648013
6312000,-72.5795360322377
6320000,-72.6663022495437
6328000,-73.1423170448902
6336000,-71.7016503397861
6344000,-72.5298609677083
6352000,-70.5984146805893
6360000,-71.9224606956047
6368000,-73.1010992510565
6376000,-71.3969999680991
6384000,-74.4723934786975
6392000,-76.2423479851819
6400000,-75.7483522181225
6408000,-73.5503820205821
6416000,-71.0400335913364
6424000,-70.4639288323323
6432000,-71.2242757098266
6440000,-73.3586870032255
6448000,-73.0674646364801
6456000,-70.2842262716677
6464000,-73.508620719171
6472000,-72.6987359559454
6480000,-71.6945880711836
6488000,-70.9762478387913
6496000,-71.5633375031681
6504000,-75.0921798465341
6512000,-76.4195006376009
6520000,-73.885219535611
6528000,-74.8247309491835
6536000,-72.8583084013704
6544000,-72.0947684760822
6552000,-71.2410574028714
6560000,-73.1879877069228
6568000,-75.7420130267254
6576000,-74.656696465353
6584000,-74.6870003300133
6592000,-73.5175807911538
6600000,-75.1078747416659
6608000,-73.5133197592212
6616000,-77.3569547354861
6624000,-76.2562466890431
6632000,-74.2325796553758
6640000,-74.6571424836049
6648000,-71.0566587898213
6656000,-71.0188762298199
6664000,-72.2882299472527
6672000,-71.0073055558817
6680000,-71.1185987099956
6688000,-72.9342972707959
6696000,-73.2838041183815
6704000,-72.7828242285293
6712000,-71.913570364799
6720000,-72.4337958008544
6728000,-72.883118013086
6736000,-71.2659000122865
6744000,-70.3903639292624
6752000,-71.6047493501692
6760000,-71.5260573390925
6768000,-70.5876142714195
6776000,-72.4505456759847
6784000,-72.1455035308949
6792000,-74.9163744447227
6800000,-73.0013826765041
6808000,-71.7636519720863
6816000,-72.7534056897265
6824000,-73.2128970632108
6832000,-72.474301846555
6840000,-71.0010080764427
6848000,-72.1048784134204
6856000,-70.8858364389519
6864000,-69.3647469932298
6872000,-70.4181583407207
6880000,-71.6837415723012
6888000,-70.3877464117006
6896000,-72.821637259681
6904000,-75.6966643785788
6912000,-73.216724340682
6920000,-72.4392989743841
6928000,-73.3493277824871
6936000,-72.5691232286125
6944000,-69.6765410551462
6952000,-70.1463542395145
6960000,-71.1325193773183
6968000,-70.9816754905022
6976000,-73.5292208172306
6984000,-72.8862141075602
6992000,-73.669948698596
7000000,-72.3501678361762
7008000,-71.5559689552394
7016000,-74.8629685018568
7024000,-71.4366416605929
7032000,-71.541682322347
7040000,-71.7250372491435
7048000,-70.9618737271226
7056000,-71.4591461392568
7064000,-70.6556278405267
7072000,-72.698081246406
7080000,-70.3739475658074
7088000,-72.1290788192768
7096000,-74.0755060237149
7104000,-74.1755298561337
7112000,-73.7537827149685
7120000,-71.2214286208524
7128000,-71.4956416138954
7136000,-72.7037926421126
7144000,-72.1716607255027
7152000,-71.8132414925264
7160000,-73.3310349732585
7168000,-71.9196672565779
7176000,-72.2244658449233
7184000,-72.9375284388254
7192000,-73.2978785345633
7200000,-75.3838233508047
7208000,-72.1081544380019
7216000,-72.6814523575429
7224000,-71.2021621057595
7232000,-71.4566249773531
7240000,-71.4288228437471
7248000,-70.2442726485284
7256000,-72.7488776612872
7264000,-72.4684796601943
7272000,-72.2911944511453
7280000,-76.0502732061142
7288000,-79.1823342960251
7296000,-76.5944673317159
7304000,-73.9696772951797
7312000,-73.7232072927793
7320000,-72.5949523205462
7328000,-71.1447669744426
7336000,-70.935831123875
7344000,-69.9721612765643
7352000,-71.2910477967132
7360000,-71.8929195708129
7368000,-72.1871257310442
7376000,-73.2265944265586
7384000,-77.3372769967346
7392000,-75.8916598332589
7400000,-73.5532965132871
7408000,-73.4146926618526
7416000,-76.3691248416392
7424000,-74.7608287426778
7432000,-71.5524451992947
7440000,-73.2467774349409
7448000,-72.3657713247152
7456000,-70.7178104990072
7464000,-69.4972883763129
7472000,-71.4296014160786
7480000,-74.0648411043112
7488000,-75.9265649071347
7496000,-72.1347887985188
7504000,-71.7948885157518
7512000,-73.903711302941
7520000,-72.5053481193315
7528000,-72.4136737446665
7536000,-72.9890835893259
7544000,-70.7793004291433
7552000,-70.0665645276568
7560000,-73.2731583782989
7568000,-71.9260730935173
7576000,-73.168321016344
7584000,-73.3970061715303
7592000,-71.6562382046937
7600000,-72.260184614967
7608000,-74.8086384943143
7616000,-72.166280772132
7624000,-70.1060477787315
7632000,-71.1709495210201
7640000,-70.244412958083
7648000,-70.3023511086371
7656000,-69.6594072815927
7664000,-69.7276143016231
7672000,-72.390918779865
7680000,-74.0985308470623
7688000,-76.2177632581032
7696000,-78.2390915617734
7704000,-77.2735239450806
7712000,-77.612182258121
7720000,-74.5255781848501
7728000,-74.2686534022128
7736000,-72.6640597262184
7744000,-71.3321381909233
7752000,-72.6224525471696
7760000,-72.6310794839656
7768000,-71.2915934643204
7776000,-69.5179791445488
7784000,-71.493379086562
7792000,-75.3172612127644
7800000,-76.3278435303818
7808000,-73.1186982250568
7816000,-73.1954532094297
7824000,-74.6700969161349
7832000,-72.2306821636333
7840000,-71.8302089312825
7848000,-70.2480264880685
7856000,-71.8336074194153
7864000,-71.0353113044774
7872000,-71.9909238503949
7880000,-72.9945425755714
7888000,-73.8272671712994
7896000,-74.6633670566993
7904000,-76.3323663119636
7912000,-75.8103831062701
7920000,-72.0145649031788
7928000,-72.7208953218673
7936000,-71.2505328338891
7944000,-69.6734984949981
7952000,-71.5644372715836
7960000,-72.6028923071294
7968000,-74.5458092188718
7976000,-72.7766504590714
7984000,-72.4976623824379
7992000,-73.4578993555533
8000000,-76.0074637371033
8008000,-74.1963332826543
8016000,-73.3490009144476
8024000,-73.334676560723
8032000,-70.9806814150425
8040000,-70.9952075720553
8048000,-70.9363907484137
8056000,-71.3136948166457
8064000,-72.4351388253737
8072000,-71.9825927157924
8080000,-73.8298226236245
8088000,-74.4884697097424
8096000,-73.2414947706318
8104000,-74.5006463273626
8112000,-73.2886081034082
8120000,-71.9656386265609
8128000,-70.0736992418986
8136000,-69.3264560162337
8144000,-69.7256101804169
8152000,-70.2163344661732
8160000,-70.4016348770008
8168000,-70.4807072685419
8176000,-70.821041779057
8184000,-73.9870441011308
8192000,-76.3989004966435
8200000,-77.3886268436656
8208000,-74.4374720471945
8216000,-72.5056838259275
8224000,-72.1452638038408
8232000,-70.0884212356567
8240000,-70.7928678561065
8248000,-73.208799775403
8256000,-72.1340491575298
8264000,-72.2738043641736
8272000,-71.1775424556554
8280000,-71.1813616493191
8288000,-74.9523392615638
8296000,-77.0327971703437
8304000,-78.7461183697973
8312000,-74.3255174953839
8320000,-71.8538876121859
8328000,-71.1899439941072
8336000,-70.4861362308045
8344000,-68.985216856541
8352000,-68.5564299180178
8360000,-68.0625653414046
8368000,-70.1063232062644
8376000,-70.4928668469178
8384000,-75.0076733482579
8392000,-74.2660379851294
8400000,-77.1773911853221
8408000,-77.0857125108253
8416000,-73.5112829626351
8424000,-71.5549459151266
8432000,-69.6699191098954
8440000,-68.7973913820906
8448000,-68.629956306656
8456000,-69.3862846896616
8464000,-70.1302495869981
8472000,-71.7566693114489
8480000,-71.2891907512311
8488000,-72.4912249104297
8496000,-75.4125531915198
8504000,-74.5133250752533
8512000,-71.1583407429562
8520000,-70.2859249770613
8528000,-70.0897248289368
8536000,-69.6440649604732
8544000,-69.971182350368
8552000,-67.9728379512484
8560000,-68.9058123631163
8568000,-71.6269224596251
8576000,-71.5638690617028
8584000,-74.293267617734
8592000,-73.9562707964073
8600000,-75.7324338146552
8608000,-75.0898776514653
8616000,-73.5819483280012
8624000,-70.2901221748359
8632000,-68.5433987563998
8640000,-68.7635075078242
8648000,-69.5505155905188
8656000,-70.2896420472799
8664000,-70.9664748001471
8672000,-71.6179754759137
8680000,-70.7361724619057
8688000,-71.0880795127668
8696000,-75.7467111444856
8704000,-75.3969504378832
8712000,-73.0602767982629
8720000,-71.032722809416
8728000,-70.781727801175
8736000,-71.6065699867485
8744000,-70.5621611087028
8752000,-68.514869748271
8760000,-67.4028015288234
8768000,-68.3987930697162
8776000,-68.0983549235319
8784000,-69.9233096043502
8792000,-70.6649252562438
8800000,-73.2787432064139
8808000,-73.5836830041838
8816000,-75.8789148945163
8824000,-72.9715840324232
8832000,-71.0231404631165
8840000,-67.4045871152093
8848000,-67.6469401714859
8856000,-68.2070277369296
8864000,-68.132247475864
8872000,-70.4884316156495
8880000,-71.5535341332895
8888000,-71.6985472993954
8896000,-71.5809178029494
8904000,-76.4064623277473
8912000,-74.3405481510071
8920000,-73.4382573682407
8928000,-70.7757754113042
8936000,-70.3939741863283
8944000,-68.480876065087
8952000,-67.5521102425946
8960000,-67.6869567822295
8968000,-69.0672066189649
8976000,-70.5429501936495
8984000,-72.2684512847363
8992000,-70.4189002638301
9000000,-68.6202190379881
9008000,-72.0175024032521
9016000,-71.309099935529
9024000,-67.193520664005
9032000,-67.58471279815
9040000,-68.3303995568626
9048000,-67.8537646674796
9056000,-67.2983273270913
9064000,-66.3961634785376
9072000,-68.1270930913253
9080000,-69.6992256518312
9088000,-72.5130082861176
9096000,-75.4483786858772
9104000,-74.8472315764719
9112000,-70.9066249710036
9120000,-69.1759495830709
9128000,-68.117103214354
9136000,-67.1549224916582
9144000,-67.5919745874348
9152000,-66.6886998945282
9160000,-67.8833101840074
9168000,-67.2538103514763
9176000,-67.029948678076
9184000,-70.1291451479369
9192000,-76.3055323255008
9200000,-77.4550935011019
9208000,-75.8272502688588
9216000,-71.7539441473277
9224000,-70.5681330727506
9232000,-67.109331008634
9240000,-66.2938492510133
9248000,-65.5826914031906
9256000,-65.7252422993535
9264000,-66.5096750921129
9272000,-66.4815631721205
9280000,-67.4045333830315
9288000,-70.9958327284888
9296000,-72.7712723284184
9304000,-75.9151176791368
9312000,-73.1686840806155
9320000,-69.7952811870675
9328000,-67.095259064122
9336000,-66.0116168676473
9344000,-66.8949947667467
9352000,-66.0074449022914
9360000,-65.5070932250738
9368000,-67.5545874520317
9376000,-68.4990411287584
9384000,-73.8500755992341
9392000,-75.924425846496
9400000,-73.9261950116833
9408000,-71.1175332325477
9416000,-70.0322515664188
9424000,-68.3220051460832
9432000,-67.0032135175253
9440000,-65.0005541003733
9448000,-64.3867935873526
9456000,-63.2089420244005
9464000,-63.9063787627863
9472000,-65.302622915651
9480000,-69.1337854963993
9488000,-73.8408925839166
9496000,-73.6484458111839
9504000,-74.284149368365
9512000,-71.0205536791118
9520000,-69.2464634254599
9528000,-66.2156542385746
9536000,-63.8055135379635
9544000,-62.7939091091248
9552000,-62.5853462408238
9560000,-62.7245726456875
9568000,-63.9702253536723
9576000,-64.9338742774875
9584000,-67.7582324484943
9592000,-70.5674744576697
9600000,-71.8580420175516
9608000,-69.9832494535449
9616000,-66.9038997152312
9624000,-64.2253925387108
9632000,-61.5628028224346
9640000,-61.0653635770282
9648000,-61.1834587024654
9656000,-60.9129549628653
9664000,-60.5274070250049
9672000,-61.939844149106
9680000,-63.9134125872697
9688000,-66.6460704158036
9696000,-71.9920242893735
9704000,-68.9291465355517
9712000,-66.0035424405346
9720000,-62.7583554329304
9728000,-61.3013386182013
9736000,-59.5014324557414
9744000,-58.804023114069
9752000,-57.7705906533432
9760000,-58.1566759859574
9768000,-59.0888117057734
9776000,-60.5306255514758
9784000,-62.6668178891312
9792000,-65.3021659748235
9800000,-68.1752736861516
9808000,-65.5969926507304
9816000,-61.3490962774614
9824000,-58.4200411255828
9832000,-56.263339278359
9840000,-55.2211478562186
9848000,-54.3529875242363
9856000,-53.379966650306
9864000,-53.623497340202
9872000,-54.496933636045
9880000,-55.3817432174391
9888000,-59.7833442040474
9896000,-63.0972766988588
9904000,-62.9638894295688
9912000,-57.4720310929901
9920000,-53.6225626736619
9928000,-49.92101315905
9936000,-46.8682659480205
9944000,-45.7988572643725
9952000,-43.9191922661051
9960000,-42.691301668212
9968000,-42.4476590051897
9976000,-41.5114884414359
9984000,-38.4369419665937
9992000,-26.6621319808962
10000000,-21.2417239843662
10008000,-25.1708492392794
10016000,-36.2342712399534
10024000,-40.9774620001979
10032000,-41.497869777213
10040000,-43.7094950235502
10048000,-44.1468673785477
10056000,-44.9135072941149
10064000,-47.1632434788315
10072000,-49.4904903597725
10080000,-52.461117337441
10088000,-56.8000757747398
10096000,-60.4041748811529
10104000,-63.6756969843784
10112000,-58.9405006001793
10120000,-56.8989064902152
10128000,-55.0761241371155
10136000,-53.6849194991065
10144000,-54.1563491966477
10152000,-54.1226303546554
10160000,-54.5776811572093
10168000,-56.4727660783377
10176000,-57.7131352432237
10184000,-60.3187919776983
10192000,-63.5710856126789
10200000,-68.9682302121973
10208000,-66.5564937205632
10216000,-63.4492648552773
10224000,-61.4721062543224
10232000,-58.9485200546234
10240000,-59.1407287938051
10248000,-58.1428063823038
10256000,-57.7472180451864
10264000,-58.7720801354185
10272000,-59.9930087848311
10280000,-62.5121652915099
10288000,-66.8622389699933
10296000,-71.1512489667015
10304000,-72.3503625782303
10312000,-68.17200030562
10320000,-65.7924389261453
10328000,-63.2259966865052
10336000,-61.0846958920451
10344000,-59.664917522564
10352000,-59.0978597653461
10360000,-60.1883211778644
10368000,-61.5207043408584
10376000,-62.6373293613171
10384000,-66.4881807177996
10392000,-68.7023483474945
10400000,-72.297374504569
10408000,-71.044911363058
10416000,-67.0694170843759
10424000,-65.2148973899016
10432000,-62.4041877959516
10440000,-62.3067126539071
10448000,-60.7037923702789
10456000,-60.0528653967017
10464000,-62.1278099542933
10472000,-62.1518606272491
10480000,-64.2128291625569
10488000,-66.7660700549708
10496000,-72.2794908615083
10504000,-72.828314394663
10512000,-68.4812182691739
10520000,-64.9266407468286
10528000,-62.5918172983391
10536000,-61.872784993139
10544000,-61.2293885098014
10552000,-60.2624971962187
10560000,-60.9388147872525
10568000,-62.3608606794897
10576000,-62.9732848544825
10584000,-66.8353335291825
10592000,-71.3064003383525
10600000,-74.1421418427284
10608000,-72.6578729872013
10616000,-65.9799696784578
10624000,-64.0498061003193
10632000,-61.4557021430596
10640000,-60.1430543688704
10648000,-59.243586956421
10656000,-59.8483756495983
10664000,-60.5273157650755
10672000,-60.5486446744513
10680000,-62.913183023957
10688000,-65.4414994458654
10696000,-70.5706711525136
10704000,-72.0376258739954
10712000,-68.3837169416741
10720000,-65.1712040783862
10728000,-61.6010148097359
10736000,-58.8548541161756
10744000,-58.1224940385456
10752000,-58.2387156368265
10760000,-57.8452489815242
10768000,-59.5181925175213
10776000,-59.6971835308135
10784000,-62.4738002684595
10792000,-66.0285027143894
10800000,-68.7921941136985
10808000,-68.1159028804898
10816000,-61.5570409217374
10824000,-59.3073728840747
10832000,-56.4866222130853
10840000,-55.4000434982808
10848000,-54.5307671164897
10856000,-53.3986842385452
10864000,-53.5702944700442
10872000,-53.9653081227226
10880000,-55.7549479168751
10888000,-58.7532850375791
10896000,-62.1175381424638
10904000,-63.676703726061
10912000,-58.7880689693965
10920000,-54.8824988469011
10928000,-51.0848040098588
10936000,-47.4623572529366
10944000,-45.7749474583375
10952000,-43.8347075358055
10960000,-42.5071101949132
10968000,-41.9875389466142
10976000,-40.7524474536786
10984000,-37.8773935777525
10992000,-26.756593606211
11000000,-21.3964236398947
11008000,-25.3881639801096
11016000,-36.6181469442331
11024000,-42.1817317889253
11032000,-42.2553202631828
11040000,-43.9047326499136
11048000,-44.4853130850413
11056000,-45.1192505807188
11064000,-47.0949226546198
11072000,-48.997023729663
11080000,-51.8130925128949
11088000,-55.9416732393575
11096000,-60.4565652608604
11104000,-65.7235104911788
11112000,-62.7561490711709
11120000,-58.8473489735033
11128000,-56.1041687775443
11136000,-54.7038175919868
11144000,-54.3151488837188
11152000,-54.6071774671064
11160000,-55.2483645159753
11168000,-56.8643485720237
11176000,-58.1744549976778
11184000,-61.2334882158867
11192000,-64.2044409968411
11200000,-68.9937922575423
11208000,-70.7225157508901
11216000,-64.7242950443693
11224000,-62.2066109085625
11232000,-59.8605271063926
11240000,-59.7703282775929
11248000,-59.0704951050803
11256000,-57.973755144814
11264000,-59.6081239393401
11272000,-60.7694070773813
11280000,-62.3534216420932
11288000,-65.4014343913289
11296000,-68.2304818617926
11304000,-70.7533039657317
11312000,-67.9626760545969
11320000,-65.8448156688437
11328000,-64.1742240628119
11336000,-62.2641943493189
11344000,-61.8155516393914
11352000,-61.0264823507971
11360000,-61.9842699635193
11368000,-63.4003987895046
11376000,-65.2702504360939
11384000,-68.2362482764148
11392000,-68.5436792829976
11400000,-73.4923066390395
11408000,-72.5308350685919
11416000,-71.3664631010026
11424000,-69.6922210972121
11432000,-65.9601720286626
11440000,-64.1404668579962
11448000,-64.1644877700197
11456000,-64.1300072512112
11464000,-65.0765278050731
11472000,-66.2583283501562
11480000,-67.2106550432286
11488000,-69.2633719750829
11496000,-73.1589246694024
11504000,-74.8825031892571
11512000,-70.9782205123936
11520000,-68.4224145006616
11528000,-66.3117165906275
11536000,-65.4125833787285
11544000,-67.4173435541582
11552000,-65.7840133247685
11560000,-65.2776378625255
11568000,-66.2167403221544
11576000,-68.6670134693862
11584000,-71.9654581075966
11592000,-71.0032418905866
11600000,-75.2252713317779
11608000,-73.7245456808178
11616000,-69.5820472759008
11624000,-68.4511836155252
11632000,-68.0417903873793
11640000,-68.5788701317374
11648000,-67.4598210182809
11656000,-67.1916560244684
11664000,-67.683523267661
11672000,-66.8329784609551
11680000,-67.6664713896142
11688000,-71.2627612021115
11696000,-74.5818085257725
11704000,-74.2627894716905
11712000,-72.3479583004309
11720000,-70.0443786716544
11728000,-68.9337602682788
11736000,-68.7364357118244
11744000,-65.9396374560109
11752000,-66.93591551173
11760000,-66.5958201863525
11768000,-67.8438952651177
11776000,-69.5854974750265
11784000,-69.286840830514
11792000,-75.4008300711334
11800000,-74.3304035258108
11808000,-74.6796050923046
11816000,-72.9316231051112
11824000,-72.4066082209292
11832000,-69.8034522363286
11840000,-68.8211872169806
11848000,-70.0016087122593
11856000,-69.2469001125579
11864000,-73.1429029623385
11872000,-71.4662932189028
11880000,-72.0958599030021
11888000,-74.165886061209
11896000,-75.2049025125785
11904000,-76.7901974612238
11912000,-76.794709746452
11920000,-73.9390059567136
11928000,-71.0578236461346
11936000,-70.9742388900499
11944000,-70.2354801836061
11952000,-68.6161730194979
11960000,-69.1701712004503
11968000,-71.105792516453
11976000,-73.0774414514425
11984000,-73.7523493091265
11992000,-73.8358786907931
12000000,-72.2747992823417
12008000,-72.8019885456613
12016000,-73.9922522452743
12024000,-74.4362526847564
12032000,-72.4469717225733
12040000,-70.5228655682475
12048000,-70.3286344913412
12056000,-70.6578710875088
12064000,-71.2869218191712
12072000,-72.4154918810444
12080000,-73.1571385032019
12088000,-73.927181181053
12096000,-73.5183368642865
12104000,-77.1681648375138
12112000,-74.0823402771832
12120000,-73.0154113514571
12128000,-74.1818450275351
12136000,-72.0945150975221
12144000,-72.0906163959491
12152000,-72.0704435232794
12160000,-72.4939973833507
12168000,-72.0461978584687
12176000,-72.2235606275826
12184000,-72.9456226522349
12192000,-74.5695979725913
12200000,-77.3613889483991
12208000,-75.258484015335
12216000,-78.0090319473417
12224000,-76.1902915500753
12232000,-71.9541986449141
12240000,-71.3196017702297
12248000,-71.9758708567459
12256000,-71.1748137603197
12264000,-72.7391451580899
12272000,-73.9950904860662
12280000,-74.8160881460993
12288000,-75.641164498791
12296000,-78.6509751863885
12304000,-76.2210163888693
12312000,-75.4356614034165
12320000,-72.7066492650311
12328000,-71.3198410514843
12336000,-71.3190919288236
12344000,-74.3077779167269
12352000,-72.5500939082387
12360000,-72.4774540662272
12368000,-71.7209778096491
12376000,-72.2225048406024
12384000,-72.1217837740873
12392000,-75.1754224249581
12400000,-78.2433516680794
12408000,-74.3476848242229
12416000,-74.355225461423
12424000,-73.9871557675362
12432000,-75.1929707637903
12440000,-72.7749715511031
12448000,-73.6783356517575
12456000,-70.729772609696
12464000,-70.5225571115709
12472000,-72.0207557851258
12480000,-73.4732094612095
12488000,-74.9686954453642
12496000,-74.3590696235043
12504000,-75.4720611512049
12512000,-76.7618960041044
12520000,-75.5442932653871
12528000,-75.9375319501265
12536000,-75.2543317331435
12544000,-75.0609052288912
12552000,-73.005912630222
12560000,-72.9574396512732
12568000,-74.6877291759472
12576000,-73.6526045971179
12584000,-75.552531675467
12592000,-76.8690897451696
12600000,-77.9615429134068
12608000,-76.7660483535096
12616000,-73.9306077109418
12624000,-74.5240388687969
12632000,-76.6271832936686
12640000,-75.30420810161
12648000,-73.1371632115365
12656000,-71.7917562141515
12664000,-72.730043202638
12672000,-72.4755732372664
12680000,-76.0532790824217
12688000,-75.3635216431956
12696000,-73.7839393273618
12704000,-74.6350480564207
12712000,-74.5065235808143
12720000,-78.4169156644664
12728000,-75.0926001795813
12736000,-71.2800178968344
12744000,-73.3979618018783
12752000,-71.4385634024901
12760000,-71.459460544191
12768000,-74.3202806460931
12776000,-74.6154725941141
12784000,-77.4844649195238
12792000,-75.2781631845764
12800000,-75.2933480130475
12808000,-75.7590876906133
12816000,-76.6384213257255
12824000,-76.4361314100955
12832000,-74.0407579870844
12840000,-73.0212861568702
12848000,-74.3764560636205
12856000,-74.4365899409502
12864000,-74.8732582083625
12872000,-73.5498038678454
12880000,-74.2500932494961
12888000,-75.1372409092146
12896000,-76.428591867275
12904000,-79.8281526050785
12912000,-76.3616177846691
12920000,-72.5904304981841
12928000,-73.0211214747329
12936000,-71.5588449565818
12944000,-73.2110875386744
12952000,-75.1101875725087
12960000,-73.0825881745725
12968000,-72.8225106744952
12976000,-73.1073530279663
12984000,-75.9637569620555
12992000,-77.533109234001
13000000,-76.7376949417666
13008000,-76.643658218514
13016000,-75.8235375470565
13024000,-75.3156171399369
13032000,-76.3975234639383
13040000,-74.2050193264188
13048000,-75.9725345012716
13056000,-74.0712733540482
13064000,-73.6301790394469
13072000,-76.2763080843429
13080000,-75.5013209120369
13088000,-75.3970889808639
13096000,-75.2068955649213
13104000,-73.8078642284544
13112000,-76.7758888649815
13120000,-75.3771225734858
13128000,-74.433576146757
13136000,-73.4290321941119
13144000,-72.1775447396039
13152000,-73.0742552067738
13160000,-72.5175995344167
13168000,-72.0286047145424
13176000,-74.2942885890376
13184000,-73.5133978615557
13192000,-78.6519655841368
13200000,-78.548142868544
13208000,-78.7211759917476
13216000,-74.0988400747883
13224000,-73.3978518378976
13232000,-73.010507913085
13240000,-71.7842597623747
13248000,-73.961752415211
13256000,-75.2158098134339
13264000,-74.4453746426422
13272000,-72.930018147263
13280000,-74.5016089266467
13288000,-74.4765722581973
13296000,-76.0577468737135
13304000,-75.6440295920005
13312000,-76.5445446127383
13320000,-75.6833518384412
13328000,-75.810299208413
13336000,-76.0278360788272
13344000,-77.1344894856932
13352000,-73.8326313819736
13360000,-73.1047340855633
13368000,-73.4474941940678
13376000,-73.1509071991369
13384000,-73.2548456178311
13392000,-76.0585119628729
13400000,-77.4974208436832
13408000,-76.8241197681467
13416000,-74.8871401468258
13424000,-76.7779906162407
13432000,-74.3852060690998
13440000,-72.6606970417459
13448000,-75.4663851665415
13456000,-73.7616369310589
13464000,-74.2054797281193
13472000,-75.7718059465472
13480000,-76.2191435560858
13488000,-75.2097312259209
13496000,-74.497604872405
13504000,-78.5903029990697
13512000,-77.7709897054221
13520000,-78.0330003155553
13528000,-77.0218029495059
13536000,-75.7547219618103
13544000,-77.5941711214189
13552000,-76.6814574295534
13560000,-76.2080680036592
13568000,-76.1361787318395
13576000,-74.2480514590419
13584000,-74.8640227841613
13592000,-78.1920072612079
13600000,-75.0908521792152
13608000,-78.3682390560996
13616000,-78.053240497631
13624000,-77.6934856402255
13632000,-75.3991820025902
13640000,-74.0128644201573
13648000,-74.851476957209
13656000,-73.9667209928462
13664000,-75.4415103348518
13672000,-76.3065653454969
13680000,-77.4036014905885
13688000,-74.1731884740828
13696000,-75.0179447913982
13704000,-74.1643771294652
13712000,-75.1128778887992
13720000,-77.215963965891
13728000,-74.7316015168001
13736000,-72.592278026966
13744000,-75.6792734490102
13752000,-76.5950677902942
13760000,-79.2700776037634
13768000,-75.5064242516176
13776000,-76.1808861859074
13784000,-75.7871990911697
13792000,-82.0245102523077
13800000,-80.896219784259
13808000,-79.2910706075852
13816000,-77.9649536801132
13824000,-75.7458621361483
13832000,-74.8033085398477
13840000,-74.851097902406
13848000,-76.9594973017597
13856000,-74.0454834922379
13864000,-75.335432531824
13872000,-73.3584719683726
13880000,-73.1731273998502
13888000,-75.0772624350206
13896000,-72.5586807919933
13904000,-74.8337730612187
13912000,-78.0122321676692
13920000,-75.471425916821
13928000,-74.1526839495172
13936000,-73.7459352426108
13944000,-75.3014571268029
13952000,-74.4035282471728
13960000,-74.6874991679713
13968000,-75.0940401020963
13976000,-74.1493715582091
13984000,-76.4372686081579
13992000,-78.4005957809292
14000000,-76.1878455783745
