Trace
Swept SA
A.12.13,N9010A
513 B25 DP2 RTL ,01
Segment,0
Number of Points,1001
Sweep Time,0.044
Start Frequency,6000000
Stop Frequency,14000000
Average Count,0
Average Type,LogPower(Video)
RBW,9100
RBW Filter,Gaussian
RBW Filter BW,3dB
VBW,9100
Sweep Type,Swept
X Axis Scale,Lin
PreAmp State,Off
PreAmp Band,Low
Trigger Source,Periodic
Trigger Level,1
Trigger Slope,Positive
Trigger Delay,0
Phase Noise Optimization,Narrow
Swept If Gain,Low
FFT If Gain,Autorange
RF Coupling,AC
FFT Width,411900
Ext Ref,10000000
Input,RF
RF Calibrator,Off
Attenuation,10
Ref Level Offset,0
External Gain,0
Trace Type,Average
Detector,Sample
Trace Math,Off
Trace Math Oper1,Trace5
Trace Math Oper2,Trace6
Trace Math Offset,0
Trace Name,Trace1
X Axis Units,Hz
Y Axis Units,dBm
DATA
6000000,-74.5317899047223
6008000,-75.1038939449892
6016000,-71.1239256369653
6024000,-73.5375532547834
6032000,-70.8448542611054
6040000,-69.700525657453
6048000,-70.7875551448656
6056000,-68.193837635568
6064000,-70.3969859188054
6072000,-69.7907065574456
6080000,-72.9706465173336
6088000,-73.0074823431526
6096000,-72.8276280150665
6104000,-75.1201477654285
6112000,-74.4800016740564
6120000,-70.8587850047027
6128000,-69.6312526372798
6136000,-68.9035250391202
6144000,-69.8843532824979
6152000,-69.1036563561065
6160000,-70.019333826524
6168000,-69.8869112742764
6176000,-69.8243147478698
6184000,-71.7713561134159
6192000,-72.9797018729936
6200000,-75.4537477817065
6208000,-72.4320467380659
6216000,-70.5297874005231
6224000,-73.1257720092483
6232000,-68.9255318423093
6240000,-68.7035209096404
6248000,-70.8112752898828
6256000,-68.9535546035102
6264000,-68.763232621997
6272000,-69.8413470333061
6280000,-71.0011216102825
6288000,-73.9884976510295
6296000,-76.3772444841441
6304000,-73.9837986098004
6312000,-73.1424725232947
6320000,-71.7135296513277
6328000,-70.4600687106449
6336000,-68.8190467629556
6344000,-68.5750744021783
6352000,-68.5427822118675
6360000,-70.6464551923934
6368000,-70.8739438753334
6376000,-70.4848565665146
6384000,-72.3949861005467
6392000,-72.0024200529981
6400000,-71.3405158068501
6408000,-74.138230002968
6416000,-71.9082678243081
6424000,-69.8273541389023
6432000,-68.6269886212562
6440000,-70.3214323225014
6448000,-71.2442807011126
6456000,-70.1096119193289
6464000,-70.7679576342443
6472000,-70.8517547263099
6480000,-74.6869583195754
6488000,-76.8187687339187
6496000,-76.6062731475109
6504000,-74.5067797173092
6512000,-72.9098245835233
6520000,-71.2529425240438
6528000,-71.2069574036888
6536000,-73.4513950322363
6544000,-71.0453319800652
6552000,-69.4739178950386
6560000,-70.49613982499
6568000,-73.0222971933663
6576000,-73.0877589047966
6584000,-75.731724539543
6592000,-78.0785909752803
6600000,-74.7418246039336
6608000,-73.2357512097405
6616000,-71.4342219183192
6624000,-72.5175499757894
6632000,-70.4249448973576
6640000,-68.5567371071544
6648000,-67.9099145816998
6656000,-68.9934494732455
6664000,-72.5913049255894
6672000,-71.9160428351191
6680000,-72.5479887741046
6688000,-74.1886051745146
6696000,-75.0564504753509
6704000,-77.2219602791213
6712000,-73.8620485625934
6720000,-72.243513210429
6728000,-71.2089557882711
6736000,-69.3197414785569
6744000,-70.1363811162827
6752000,-67.8098201091653
6760000,-70.1043389161131
6768000,-71.7274209989245
6776000,-69.9364153063659
6784000,-72.470071036143
6792000,-74.6700777691473
6800000,-77.9441421339676
6808000,-74.5247636023649
6816000,-71.3449045247932
6824000,-70.2304421742327
6832000,-71.2843897919099
6840000,-70.662634404134
6848000,-69.4106263152959
6856000,-68.7017404780864
6864000,-69.9814451671651
6872000,-70.6325413798911
6880000,-74.7977629056249
6888000,-75.2982322116148
6896000,-73.8717115333344
6904000,-74.4783546742801
6912000,-73.5492569268807
6920000,-71.2456952267305
6928000,-71.4576574583926
6936000,-71.2119762453507
6944000,-69.9136103059758
6952000,-68.2932773025255
6960000,-68.8795310870714
6968000,-72.4369336717863
6976000,-69.8236334719775
6984000,-74.1764880043379
6992000,-75.3804303947027
7000000,-71.8552659948556
7008000,-71.7024622508336
7016000,-71.9992912051824
7024000,-71.1685785355419
7032000,-67.9062481723068
7040000,-68.5768426700596
7048000,-67.9355636763742
7056000,-67.6835939841462
7064000,-68.1256797952712
7072000,-69.939359324859
7080000,-69.7673772697776
7088000,-73.194702686416
7096000,-71.6170257342544
7104000,-72.4558602335042
7112000,-71.2074151247253
7120000,-72.852199916622
7128000,-68.9870659477596
7136000,-69.5455863788946
7144000,-73.5018067637746
7152000,-70.9002146692562
7160000,-71.0838776282907
7168000,-70.6860671749759
7176000,-69.9178792239859
7184000,-73.0037397511461
7192000,-73.7006343489669
7200000,-75.6840189446978
7208000,-71.958360966927
7216000,-70.550687358222
7224000,-73.4215820869589
7232000,-71.0784073876784
7240000,-71.7625933114332
7248000,-69.9146580229091
7256000,-66.4649067253754
7264000,-68.8274554182627
7272000,-69.6649620956667
7280000,-73.3723895987429
7288000,-73.5534000022616
7296000,-73.6155915947877
7304000,-74.919879402469
7312000,-71.4737004811485
7320000,-70.2721639986667
7328000,-69.1359169676219
7336000,-68.2933016408179
7344000,-70.0999573238585
7352000,-69.1895305512888
7360000,-70.1860101204214
7368000,-70.8570352096893
7376000,-69.972528601692
7384000,-71.4340577449933
7392000,-75.2302943966182
7400000,-73.0282808785965
7408000,-71.9910915393037
7416000,-71.4537858758364
7424000,-72.1621489352271
7432000,-68.3375387363787
7440000,-67.7843761718886
7448000,-71.3070648132657
7456000,-70.5425487737588
7464000,-71.5929522455754
7472000,-70.414123375486
7480000,-74.4277118220434
7488000,-74.7371136839534
7496000,-74.7835078009945
7504000,-75.1082293111549
7512000,-72.8403389603221
7520000,-73.9098291426399
7528000,-70.4433433992108
7536000,-69.6636985227149
7544000,-69.5273083287986
7552000,-71.1051133449651
7560000,-70.2125101922153
7568000,-70.321132872252
7576000,-69.0078679390074
7584000,-69.5529978656345
7592000,-74.6224777835234
7600000,-71.7507744237101
7608000,-71.3012054221571
7616000,-70.8006731104563
7624000,-70.6399209338269
7632000,-69.9240491550564
7640000,-71.0268139166003
7648000,-68.9939167874804
7656000,-68.3173964028334
7664000,-67.6826867229976
7672000,-71.7777535601631
7680000,-75.1928751662751
7688000,-73.3679873380405
7696000,-70.7601011364312
7704000,-69.6199655163844
7712000,-74.1942798144149
7720000,-71.723164135321
7728000,-69.3062129479532
7736000,-69.0238683092562
7744000,-71.2472326348242
7752000,-67.5836968702266
7760000,-69.1093181408271
7768000,-70.7564651591094
7776000,-68.8194062806144
7784000,-73.7493385234849
7792000,-75.5066102574077
7800000,-73.5249114772667
7808000,-73.7719702824697
7816000,-71.8919151082408
7824000,-70.8654915518016
7832000,-67.7107254292418
7840000,-69.3725107849255
7848000,-68.0856768202698
7856000,-67.532121285222
7864000,-68.7480503001869
7872000,-69.2062187560902
7880000,-72.4262409658669
7888000,-74.5162221987391
7896000,-75.0159211347336
7904000,-72.6753430771946
7912000,-70.4261510342806
7920000,-70.507224993454
7928000,-69.2218963250066
7936000,-65.9665682083387
7944000,-67.08733703348
7952000,-66.1292102273811
7960000,-67.0704220821319
7968000,-67.4671827770017
7976000,-69.103581219435
7984000,-72.2239486929381
7992000,-74.1828736975473
8000000,-73.9889188868632
8008000,-73.0385211684876
8016000,-71.2113773505016
8024000,-69.5123825357457
8032000,-67.9307659486199
8040000,-67.74111781574
8048000,-67.8073091936074
8056000,-66.3541797458086
8064000,-66.3338226858134
8072000,-68.31400262223
8080000,-70.9952946949805
8088000,-75.0988586296589
8096000,-73.4904350844873
8104000,-73.8627147987502
8112000,-75.056515267317
8120000,-73.0374995495921
8128000,-69.3993343956564
8136000,-67.4212105574586
8144000,-68.5602297201536
8152000,-66.4886603263265
8160000,-68.9918854401771
8168000,-66.9833704898346
8176000,-67.8224125194094
8184000,-74.7124508799506
8192000,-74.4460993286584
8200000,-72.0767139846465
8208000,-73.8719398717695
8216000,-71.3123378523925
8224000,-69.6165348213968
8232000,-68.4285690723838
8240000,-67.8960973214402
8248000,-66.3435246691428
8256000,-65.6738454733193
8264000,-70.0686077738926
8272000,-69.2139502122842
8280000,-72.3174374995414
8288000,-76.4056111440913
8296000,-74.3034390264027
8304000,-73.6327648844645
8312000,-71.862795178631
8320000,-70.9148806364984
8328000,-70.4875666514818
8336000,-67.2133985130343
8344000,-66.692615850343
8352000,-65.3391581356591
8360000,-67.0692712515863
8368000,-68.6083987909541
8376000,-68.970843152066
8384000,-72.746969076782
8392000,-71.6874854083742
8400000,-73.0776020683029
8408000,-72.4331754602441
8416000,-70.9357299954651
8424000,-69.488779484776
8432000,-68.5110217119458
8440000,-69.0914087919643
8448000,-68.2766409024706
8456000,-68.2007987970221
8464000,-70.4258133745176
8472000,-67.8995525542009
8480000,-68.4057601186398
8488000,-70.9650266800578
8496000,-72.978480146589
8504000,-74.0331979524878
8512000,-74.916673813144
8520000,-74.7766894592184
8528000,-70.0573092319389
8536000,-68.066881628202
8544000,-66.3030549793742
8552000,-65.49174922871
8560000,-66.3731638017047
8568000,-67.2152543577816
8576000,-67.8743100212914
8584000,-70.2778985056589
8592000,-71.9214384632039
8600000,-75.7804585169671
8608000,-73.057924662203
8616000,-69.9591643575914
8624000,-68.571622795681
8632000,-66.499614147527
8640000,-68.2345575635174
8648000,-68.5574117910047
8656000,-64.5432961780774
8664000,-65.4570070229629
8672000,-66.261973439055
8680000,-68.1763278143438
8688000,-72.0499666421465
8696000,-73.9683213338552
8704000,-78.403610122563
8712000,-72.4524456470056
8720000,-69.3634323846964
8728000,-66.025604864693
8736000,-64.8118298833035
8744000,-66.3056478103843
8752000,-64.4916783504009
8760000,-65.1831717337255
8768000,-66.097789960111
8776000,-67.2758286321865
8784000,-69.0252075015786
8792000,-71.3206528081889
8800000,-74.001499196231
8808000,-72.4508811930767
8816000,-69.659768470239
8824000,-67.8526975491723
8832000,-65.4510649828111
8840000,-66.8669692507253
8848000,-65.9611246771573
8856000,-63.8905021616749
8864000,-65.9916005212418
8872000,-65.5059868314545
8880000,-66.7044618244653
8888000,-69.7501694549491
8896000,-73.0999439191079
8904000,-75.3342724586787
8912000,-70.8210789356245
8920000,-68.1156105409532
8928000,-66.1551630475583
8936000,-64.123370780352
8944000,-64.5150786945692
8952000,-62.1754890022161
8960000,-63.3793289123853
8968000,-64.4130471393411
8976000,-64.9901314802746
8984000,-70.3507210189979
8992000,-73.0315001693645
9000000,-74.5211224992616
9008000,-73.8040734277327
9016000,-68.3745861025943
9024000,-66.7090530849806
9032000,-64.0541755440556
9040000,-64.281448091581
9048000,-63.5420318207778
9056000,-62.4455632586206
9064000,-63.3570937565947
9072000,-64.7462152915828
9080000,-67.6459837046912
9088000,-71.8488599100041
9096000,-71.0976746815691
9104000,-71.0229154640847
9112000,-68.0248535073646
9120000,-66.6237126044255
9128000,-65.3523945958123
9136000,-62.0903955535554
9144000,-63.0352750262582
9152000,-62.0193551977713
9160000,-62.448776468722
9168000,-63.5728714851049
9176000,-63.985819709456
9184000,-69.9027836717806
9192000,-72.4672789190795
9200000,-74.390444953896
9208000,-69.7410361969794
9216000,-66.9427547395294
9224000,-67.336664448773
9232000,-62.6594411025615
9240000,-62.436852466257
9248000,-62.8215610921385
9256000,-61.1307891704185
9264000,-62.363104277141
9272000,-62.5186742886678
9280000,-64.9364008880443
9288000,-71.7679010586361
9296000,-72.162995985694
9304000,-70.5122984542781
9312000,-67.5044826013429
9320000,-65.2643990276711
9328000,-62.5331002295956
9336000,-60.7505005863374
9344000,-61.2256591265958
9352000,-59.6130218840106
9360000,-60.8394136721404
9368000,-62.5638933235755
9376000,-62.1019374435392
9384000,-65.223891733165
9392000,-69.9993018801456
9400000,-72.813883318784
9408000,-71.4855584110664
9416000,-65.958091512883
9424000,-64.952199542866
9432000,-61.280874080442
9440000,-60.6598585238876
9448000,-60.1772166345679
9456000,-59.9697964477716
9464000,-61.1184785509354
9472000,-60.2057855326909
9480000,-62.0965600893154
9488000,-66.9330829430135
9496000,-70.214587735558
9504000,-68.1876279165067
9512000,-64.6185828231746
9520000,-62.4482216921374
9528000,-60.2810685168123
9536000,-57.9129181434115
9544000,-58.1549594084665
9552000,-56.8467622382838
9560000,-57.8366771405271
9568000,-59.4873532420471
9576000,-59.0485594182194
9584000,-62.2413732390906
9592000,-65.9031204139391
9600000,-68.591668650516
9608000,-65.867357945171
9616000,-62.0123101995634
9624000,-60.3770469924877
9632000,-57.3217515748077
9640000,-56.5086380914977
9648000,-55.780297102431
9656000,-55.0953489913051
9664000,-56.4683722811401
9672000,-56.4637383144599
9680000,-58.9721808958932
9688000,-63.3702738074561
9696000,-65.8063799769901
9704000,-66.4552752834606
9712000,-60.9123521001927
9720000,-59.4331406251485
9728000,-56.1038296594972
9736000,-53.2049530887572
9744000,-53.8741513315456
9752000,-52.3590863876919
9760000,-52.9308138338308
9768000,-53.6334597431557
9776000,-54.2845733170286
9784000,-57.2969788167634
9792000,-60.0440040533648
9800000,-62.996720342937
9808000,-61.1954018620197
9816000,-55.7206693477189
9824000,-53.6432611969671
9832000,-50.0396794208549
9840000,-49.5989585151391
9848000,-49.1424588454353
9856000,-47.5796149392181
9864000,-48.9087325008767
9872000,-48.4452409467376
9880000,-50.6599377640603
9888000,-53.9185574505703
9896000,-57.6783080970013
9904000,-56.6828077403414
9912000,-50.8520249450794
9920000,-48.2425163861118
9928000,-44.8150046260829
9936000,-41.1834190880312
9944000,-40.5909973487047
9952000,-37.760133951335
9960000,-37.4772704593423
9968000,-36.6111276506905
9976000,-35.7286111104688
9984000,-33.2088496971832
9992000,-21.5209873371644
10000000,-15.6942743050788
10008000,-19.4097762236389
10016000,-31.3098961967375
10024000,-37.4456548693198
10032000,-35.6934508186041
10040000,-37.5040386164228
10048000,-39.0131363017234
10056000,-39.0500628094944
10064000,-42.2092874737369
10072000,-43.6853033363037
10080000,-46.8089913873089
10088000,-52.208075565973
10096000,-56.7363424802124
10104000,-58.3726288574307
10112000,-53.8060425488876
10120000,-52.475291013391
10128000,-50.091642458801
10136000,-47.9585722578994
10144000,-49.5853889514496
10152000,-48.5480670684865
10160000,-49.795960563937
10168000,-51.7161670788449
10176000,-52.9359270961513
10184000,-56.8189230651869
10192000,-61.221380356282
10200000,-64.3484663479782
10208000,-61.6262575481247
10216000,-57.4114829931457
10224000,-57.0287865549918
10232000,-53.3795451680737
10240000,-53.4494016730595
10248000,-53.6965791405332
10256000,-52.7061053254953
10264000,-54.7044434266969
10272000,-55.2375136484368
10280000,-58.5290414741753
10288000,-63.2722134989218
10296000,-66.7967903822236
10304000,-68.6227942878032
10312000,-63.0515236575506
10320000,-61.0573150526105
10328000,-58.4642393383133
10336000,-55.917995258556
10344000,-57.0734077270286
10352000,-55.8768864266655
10360000,-56.7813220798501
10368000,-58.0542506081167
10376000,-58.9811261173923
10384000,-63.2275670577613
10392000,-66.0228498520703
10400000,-69.8320607469367
10408000,-67.1435072997215
10416000,-62.3373564251045
10424000,-62.4597322370286
10432000,-59.0229211168404
10440000,-58.9886096879215
10448000,-59.2962055238983
10456000,-57.6374396083615
10464000,-60.0694798913031
10472000,-60.7832604899867
10480000,-62.4420955093151
10488000,-68.2700729566828
10496000,-69.786228247962
10504000,-68.2263076130362
10512000,-65.8897177874859
10520000,-65.3107577913531
10528000,-63.010745523366
10536000,-60.7802139422362
10544000,-61.0196299694187
10552000,-59.9570654685338
10560000,-60.5567950963113
10568000,-61.9104210708829
10576000,-62.4796999714818
10584000,-65.3744427129374
10592000,-69.3421284427778
10600000,-74.1874886275438
10608000,-71.3869355195165
10616000,-68.2662619651325
10624000,-65.1984947983301
10632000,-61.4685730812935
10640000,-61.8236270601931
10648000,-61.8820289765656
10656000,-61.455915778797
10664000,-63.4661070416612
10672000,-64.6481829732977
10680000,-65.7343318399829
10688000,-68.2782782700298
10696000,-70.6103866186015
10704000,-71.8162524076079
10712000,-70.1548425385064
10720000,-68.6229339532807
10728000,-64.3297940097388
10736000,-62.6282270785801
10744000,-64.0380271072799
10752000,-62.4249382145324
10760000,-64.5670309512654
10768000,-64.7323588196322
10776000,-65.0150631819685
10784000,-67.9579303478541
10792000,-71.5106209877256
10800000,-76.0773881762534
10808000,-71.504925826913
10816000,-67.4517065633357
10824000,-70.2233122921822
10832000,-65.5758814004876
10840000,-64.8736034466173
10848000,-64.2119059464138
10856000,-63.2913655041675
10864000,-64.0209431161228
10872000,-65.0862948893562
10880000,-67.8780471423602
10888000,-70.9899579508079
10896000,-73.5474520362388
10904000,-75.6297907660714
10912000,-70.9176525164541
10920000,-69.9314225243579
10928000,-67.7571005304628
10936000,-64.278063736361
10944000,-65.4453459903734
10952000,-65.1583077677798
10960000,-65.3350710385373
10968000,-66.8487560681674
10976000,-67.471059990376
10984000,-70.1006331622141
10992000,-71.6206357635797
11000000,-74.0373430007986
11008000,-72.2795188626531
11016000,-72.9641266498307
11024000,-71.3400655184754
11032000,-67.1779812924345
11040000,-66.1607210169369
11048000,-67.781546033078
11056000,-65.788177008101
11064000,-71.0293206255302
11072000,-70.3127755711258
11080000,-71.0085022594038
11088000,-74.9805220155173
11096000,-76.928442502435
11104000,-75.3084710346226
11112000,-71.3951347009959
11120000,-70.7343249365087
11128000,-69.4717502527794
11136000,-68.0341647521174
11144000,-69.1983620933542
11152000,-66.7983154468514
11160000,-67.0757358930324
11168000,-67.3074837473857
11176000,-69.2580470470877
11184000,-72.4223563605624
11192000,-74.4937139040769
11200000,-74.8331324619549
11208000,-73.4250568597356
11216000,-72.6468049049892
11224000,-70.883861549159
11232000,-67.0202195460969
11240000,-67.8673631265549
11248000,-68.3153973413874
11256000,-66.581309971115
11264000,-68.0333551918102
11272000,-68.8745805282496
11280000,-70.8788458854566
11288000,-71.6213017076891
11296000,-73.1057346428243
11304000,-72.9721300511377
11312000,-72.4045652314894
11320000,-73.0584853892081
11328000,-70.6744217780581
11336000,-67.7649133256991
11344000,-69.1460299175876
11352000,-68.5394407619221
11360000,-68.0293254472094
11368000,-69.7579022186973
11376000,-70.5958212326044
11384000,-74.7124573182872
11392000,-74.5861891109594
11400000,-74.6063849823853
11408000,-73.2841935111805
11416000,-73.5406792269964
11424000,-73.2516995890025
11432000,-70.0412930882223
11440000,-70.1572551741655
11448000,-72.5379992037896
11456000,-68.4689813890655
11464000,-72.5687741555888
11472000,-71.879072199039
11480000,-71.7494218561626
11488000,-74.359618881701
11496000,-74.0900593684536
11504000,-73.5850343602888
11512000,-74.2542550886814
11520000,-73.7467401420448
11528000,-70.265622516693
11536000,-68.9113933611751
11544000,-70.0577563042602
11552000,-68.0456645279899
11560000,-68.5491840784164
11568000,-69.6628625888992
11576000,-70.1201943493744
11584000,-71.7370201912151
11592000,-73.9071858116856
11600000,-75.9405765968424
11608000,-74.4912428864196
11616000,-73.8570918739992
11624000,-73.9480537727253
11632000,-73.2971249157206
11640000,-73.6004921418116
11648000,-72.4044942409279
11656000,-71.6918438467922
11664000,-74.1449635197878
11672000,-73.3395032393438
11680000,-77.1607935839751
11688000,-76.5961055595307
11696000,-75.8835474820706
11704000,-78.5419220574583
11712000,-77.687982904864
11720000,-75.0257758593392
11728000,-70.3990511015895
11736000,-69.1288468413723
11744000,-74.3604949470877
11752000,-70.5421716351439
11760000,-72.095326944022
11768000,-71.8883077095569
11776000,-73.8063274248447
11784000,-76.041842539734
11792000,-74.9021684860211
11800000,-73.4633895804024
11808000,-77.5366152468914
11816000,-74.9893480425008
11824000,-74.1375877194133
11832000,-71.7487958405511
11840000,-71.4390404995754
11848000,-69.4215239971515
11856000,-69.6665457712543
11864000,-73.22277685755
11872000,-73.8422641208743
11880000,-73.4572929621991
11888000,-76.781409824784
11896000,-77.7072625058749
11904000,-75.3443760072021
11912000,-74.774625020993
11920000,-73.4666027455809
11928000,-71.9358860118854
11936000,-70.6763051176547
11944000,-72.5969547970704
11952000,-71.4347910525556
11960000,-71.5498141460159
11968000,-73.5925535456717
11976000,-72.717510749113
11984000,-74.3847952314371
11992000,-73.4190605058926
12000000,-75.2804168520323
12008000,-76.4018977911607
12016000,-75.9329657286016
12024000,-75.5828498320995
12032000,-71.1780955106769
12040000,-70.941339017916
12048000,-71.6760707311263
12056000,-72.5244564158637
12064000,-76.8091599948564
12072000,-73.2502277671212
12080000,-75.7045600336746
12088000,-80.8553132192925
12096000,-81.9767818103934
12104000,-76.4652371248403
12112000,-73.9067966363924
12120000,-73.5827087340697
12128000,-74.2710655383376
12136000,-73.7545308370942
12144000,-76.6952904340747
12152000,-73.3919829248075
12160000,-73.5012568979693
12168000,-76.633929354745
12176000,-77.0387869795835
12184000,-76.1711530306306
12192000,-78.630096130859
12200000,-76.4457242955229
12208000,-76.2585773688802
12216000,-74.1985777765972
12224000,-74.9665911404003
12232000,-74.2472788825036
12240000,-74.2301868234724
12248000,-74.9137803110607
12256000,-73.282040819335
12264000,-73.0349334524638
12272000,-71.2675176631907
12280000,-74.3866798719037
12288000,-76.3228290099848
12296000,-76.7560719138484
12304000,-75.5368941518937
12312000,-74.6027125641176
12320000,-73.1208525396865
12328000,-71.9496095822129
12336000,-71.3018760545329
12344000,-72.2871129171892
12352000,-71.2606906568671
12360000,-71.1704976808055
12368000,-72.6882443135291
12376000,-72.9095276368871
12384000,-74.9449980329801
12392000,-74.7905008062373
12400000,-73.6295281049664
12408000,-74.9808421069129
12416000,-74.7586199330248
12424000,-74.9166692331134
12432000,-76.4232426333328
12440000,-73.8660853475436
12448000,-73.2520095667506
12456000,-72.7730420867574
12464000,-73.877086071397
12472000,-73.8365573789766
12480000,-73.2602612229387
12488000,-74.078261880235
12496000,-74.8068999809891
12504000,-76.4966581443993
12512000,-74.1809955884313
12520000,-74.7449169217273
12528000,-74.4724498642111
12536000,-74.3574089128121
12544000,-75.1516361993536
12552000,-74.9906044449822
12560000,-73.7706633509856
12568000,-75.1428009017341
12576000,-75.9633678977408
12584000,-75.1148046888091
12592000,-75.7019384962362
12600000,-77.7252697975542
12608000,-76.4652009715325
12616000,-74.9629192697844
12624000,-75.9188172242766
12632000,-74.0474902180381
12640000,-74.0819676416385
12648000,-72.5586143033878
12656000,-73.5878198922522
12664000,-73.6620604455499
12672000,-72.2507179866733
12680000,-75.7753589307518
12688000,-75.7284453491122
12696000,-76.1688732546347
12704000,-75.3727752762128
12712000,-75.4367520823416
12720000,-74.4161388716058
12728000,-77.0749948364544
12736000,-73.613842021631
12744000,-72.6623878072886
12752000,-73.589405413879
12760000,-75.5965780536822
12768000,-74.4675513641199
12776000,-72.3825692077033
12784000,-74.4499342239137
12792000,-80.7152556857584
12800000,-78.2908960417184
12808000,-74.9388292865468
12816000,-74.6156857999893
12824000,-74.6514651260286
12832000,-75.3536045814939
12840000,-75.4282803555978
12848000,-73.1070461285769
12856000,-74.2102774325864
12864000,-76.8961709210323
12872000,-74.436261073434
12880000,-75.4959396391364
12888000,-76.2014989082732
12896000,-76.8150125727792
12904000,-77.4496844316877
12912000,-73.8777218613082
12920000,-73.6339972400604
12928000,-76.3788482162332
12936000,-74.3796758780481
12944000,-75.8227526578397
12952000,-73.3666055194712
12960000,-73.8809588916138
12968000,-75.8015732888555
12976000,-75.9726679277972
12984000,-74.2777463564276
12992000,-76.8172986195438
13000000,-75.4128493337027
13008000,-76.8194347030451
13016000,-76.9732786413266
13024000,-77.7540757208391
13032000,-76.7996286840945
13040000,-75.9258579070081
13048000,-79.1762670389496
13056000,-75.5507997314048
13064000,-75.0154608954565
13072000,-72.3692672544989
13080000,-73.6897249434655
13088000,-76.4607525968285
13096000,-76.6800371503933
13104000,-74.4559315629937
13112000,-74.3548504643835
13120000,-73.6785731947807
13128000,-73.659782334604
13136000,-72.3300908552661
13144000,-72.7283648909688
13152000,-72.1257298228288
13160000,-72.8524948485551
13168000,-74.3398819136152
13176000,-76.5068524184407
13184000,-78.2210757032275
13192000,-77.3317399136185
13200000,-77.501994789704
13208000,-76.8943409548245
13216000,-74.3351905826406
13224000,-72.7187674513005
13232000,-73.3575012008036
13240000,-74.3723568540602
13248000,-74.5935087338522
13256000,-75.1341372855611
13264000,-77.0429173506824
13272000,-75.9316616325256
13280000,-78.6816364385224
13288000,-80.018813426488
13296000,-77.5199451407442
13304000,-74.6200900988493
13312000,-77.3008024278025
13320000,-81.3016188672992
13328000,-77.8942432654462
13336000,-76.3740448512526
13344000,-73.068102373349
13352000,-72.8446261832761
13360000,-74.0729314149285
13368000,-74.6424202157126
13376000,-76.2638334073099
13384000,-74.6965031882176
13392000,-75.029066203397
13400000,-76.0144488336958
13408000,-76.040308353185
13416000,-75.6171617136744
13424000,-75.3444562766992
13432000,-74.4420064515068
13440000,-73.317987972562
13448000,-71.9758120779156
13456000,-72.6498604263221
13464000,-73.7964854854833
13472000,-76.1617269985772
13480000,-77.0124208849924
13488000,-77.0009050028885
13496000,-75.6105129390769
13504000,-78.7064952045262
13512000,-74.3697684938705
13520000,-74.5174185047113
13528000,-74.6304334998616
13536000,-76.0208024948684
13544000,-74.3392715499506
13552000,-74.541432463475
13560000,-75.7481625071304
13568000,-74.5671821505234
13576000,-75.658191588763
13584000,-76.55752573772
13592000,-76.3272909735484
13600000,-75.3219531330264
13608000,-75.4005209097083
13616000,-76.3330907879274
13624000,-78.2082488682574
13632000,-75.062928756747
13640000,-73.6890107060397
13648000,-75.321359527146
13656000,-74.2760000973364
13664000,-76.9110602613595
13672000,-76.337300316893
13680000,-75.600990181441
13688000,-75.5862889273835
13696000,-75.7917330445873
13704000,-74.3741509212834
13712000,-77.1959072159677
13720000,-77.8751137877151
13728000,-74.9905786321962
13736000,-74.6566048022037
13744000,-76.3644350710453
13752000,-73.2359776750482
13760000,-72.7840995940989
13768000,-74.6350552654632
13776000,-76.4856523847263
13784000,-75.6091174119671
13792000,-76.631856956035
13800000,-73.5812306773798
13808000,-73.7284197315241
13816000,-74.9345803404109
13824000,-75.0632273717869
13832000,-74.962261635491
13840000,-73.803797809807
13848000,-76.7626410630453
13856000,-76.9488664946648
13864000,-79.191555005913
13872000,-78.0763509562499
13880000,-75.7031239188594
13888000,-77.3855711600012
13896000,-76.1332958858914
13904000,-76.7571717948483
13912000,-77.1404194297126
13920000,-77.189205527256
13928000,-76.2325647688703
13936000,-74.6580314608079
13944000,-74.0924618127647
13952000,-71.7711884796871
13960000,-72.8588227449492
13968000,-77.1804351856891
13976000,-77.6224261356461
13984000,-78.5874979214729
13992000,-79.4601469445182
14000000,-77.3165192398676
