Trace
Swept SA
A.12.13,N9010A
513 B25 DP2 RTL ,01
Segment,0
Number of Points,1001
Sweep Time,0.02
Start Frequency,12000000
Stop Frequency,16000000
Average Count,0
Average Type,LogPower(Video)
RBW,10000
RBW Filter,Gaussian
RBW Filter BW,3dB
VBW,10000
Sweep Type,Swept
X Axis Scale,Lin
PreAmp State,Off
PreAmp Band,Low
Trigger Source,Free
Trigger Level,1.2
Trigger Slope,Positive
Trigger Delay,0
Phase Noise Optimization,Narrow
Swept If Gain,Low
FFT If Gain,Autorange
RF Coupling,AC
FFT Width,411900
Ext Ref,10000000
Input,RF
RF Calibrator,Off
Attenuation,30
Ref Level Offset,0
External Gain,0
Trace Type,Average
Detector,Sample
Trace Math,Off
Trace Math Oper1,Trace5
Trace Math Oper2,Trace6
Trace Math Offset,0
Trace Name,Trace1
X Axis Units,Hz
Y Axis Units,dBm
DATA
12000000,-23.5795483033327
12004000,-24.7389744511719
12008000,-26.0818887494096
12012000,-23.9290121807016
12016000,-21.4505461272259
12020000,-20.3439296780274
12024000,-20.945297107025
12028000,-20.8721770486887
12032000,-21.4321808974262
12036000,-23.5475235964791
12040000,-27.414134994979
12044000,-32.6934058980516
12048000,-37.3097650248022
12052000,-41.7110855606877
12056000,-44.7910528516808
12060000,-47.8179363658319
12064000,-47.9297882810692
12068000,-46.7504631138075
12072000,-46.7175626939559
12076000,-48.4015923312279
12080000,-50.5749499619279
12084000,-52.821570343069
12088000,-54.9724806646776
12092000,-54.4939322605361
12096000,-52.3286320474657
12100000,-51.1684644575562
12104000,-51.8983417466479
12108000,-53.7291511427646
12112000,-55.5525536660701
12116000,-57.5393214943224
12120000,-58.4233817874777
12124000,-59.3295868089661
12128000,-60.4185319063561
12132000,-61.1818551359299
12136000,-61.0834422085071
12140000,-60.7551729883868
12144000,-60.6780375853607
12148000,-59.9973512333199
12152000,-60.1239602804271
12156000,-61.7643598741409
12160000,-63.462917721429
12164000,-64.3383332063113
12168000,-64.7623002740999
12172000,-64.0372068113472
12176000,-62.7500158511562
12180000,-62.3458941034087
12184000,-62.8879756110889
12188000,-63.9054104988206
12192000,-64.7444104368863
12196000,-65.2115572631891
12200000,-65.2282196788497
12204000,-65.293637086805
12208000,-65.6333121048233
12212000,-65.7126228694327
12216000,-65.4855157700294
12220000,-65.1420937121357
12224000,-65.4656060630588
12228000,-65.4439056752588
12232000,-65.9028917713309
12236000,-66.4274830768239
12240000,-66.5605385204889
12244000,-66.4756300391059
12248000,-66.4073838630447
12252000,-66.1988032995986
12256000,-65.7696742704315
12260000,-65.8129009415212
12264000,-66.0703060195635
12268000,-66.2337211843949
12272000,-66.4102614363324
12276000,-66.2276842290431
12280000,-65.9304549135096
12284000,-66.1177680620045
12288000,-66.5354856441498
12292000,-66.4389940322765
12296000,-66.2502997081921
12300000,-65.8596570011391
12304000,-65.1874014500739
12308000,-64.5690920273413
12312000,-64.2795783853332
12316000,-64.6611754761726
12320000,-65.1523664122444
12324000,-65.7280010579975
12328000,-66.0860355108374
12332000,-66.2095425940657
12336000,-66.0237574738195
12340000,-65.9742196817779
12344000,-66.0232908507289
12348000,-66.1657852120814
12352000,-66.344455154458
12356000,-66.4583316636825
12360000,-66.9959552476252
12364000,-67.3592093249752
12368000,-67.0662207532756
12372000,-66.9547784989212
12376000,-66.7342037048143
12380000,-66.6503702009506
12384000,-66.730269234474
12388000,-66.7293418017015
12392000,-66.3858061413519
12396000,-65.9466849183186
12400000,-66.0012070512142
12404000,-66.3147189821839
12408000,-66.414905423552
12412000,-66.950222223447
12416000,-66.8885064463612
12420000,-66.6952850459966
12424000,-66.9124518245588
12428000,-67.1908032908194
12432000,-67.1650855929636
12436000,-66.9033700182513
12440000,-66.7621915822224
12444000,-66.8248517223611
12448000,-66.7462394297962
12452000,-66.7331218463961
12456000,-66.9400290175907
12460000,-67.2299262068465
12464000,-67.2660329931203
12468000,-67.1808894460021
12472000,-67.2712406498866
12476000,-67.28757070571
12480000,-67.1826755508341
12484000,-66.9045666131665
12488000,-66.447833041261
12492000,-66.4895021388872
12496000,-66.9518192159479
12500000,-67.1262316282172
12504000,-67.3514393058788
12508000,-67.2246038722495
12512000,-67.0030587082579
12516000,-66.7793824821329
12520000,-66.5784053388513
12524000,-66.6391203399946
12528000,-66.4288748936705
12532000,-66.2732187618085
12536000,-66.4539589117609
12540000,-66.7002022389422
12544000,-67.158419229837
12548000,-67.3613071781116
12552000,-67.1606340290931
12556000,-67.0199342690963
12560000,-67.0085586996824
12564000,-67.1462581912313
12568000,-67.3029869440143
12572000,-67.3140864271595
12576000,-67.3155619767537
12580000,-67.2550201839751
12584000,-66.8954206190428
12588000,-67.0649001302366
12592000,-67.4779903545881
12596000,-67.5737748660179
12600000,-67.0215462096662
12604000,-66.6707429255005
12608000,-66.4580371643539
12612000,-66.6850371008864
12616000,-66.9918403568162
12620000,-67.148810913775
12624000,-67.4157648830804
12628000,-67.2361305580199
12632000,-67.158734959213
12636000,-67.0934239955271
12640000,-67.1599848127843
12644000,-67.5996934477156
12648000,-67.4638986479308
12652000,-67.196674681592
12656000,-66.9392725814544
12660000,-67.0410265505046
12664000,-67.1071547955071
12668000,-66.8913538402894
12672000,-67.0136430684074
12676000,-67.0658791550552
12680000,-66.9515382799314
12684000,-67.1694768796627
12688000,-67.2139225353102
12692000,-67.3426405279591
12696000,-67.2558381129308
12700000,-66.9608601675922
12704000,-66.6809865049425
12708000,-66.6739656187007
12712000,-66.8361993743262
12716000,-67.1207311844728
12720000,-67.1570475280163
12724000,-67.486305293228
12728000,-67.671838705952
12732000,-67.4449282185042
12736000,-67.2380016984507
12740000,-67.2191937132581
12744000,-67.336560895527
12748000,-67.1395653305142
12752000,-67.0844367639145
12756000,-67.1725758367537
12760000,-67.1055795372763
12764000,-67.0906439569308
12768000,-67.2173336344907
12772000,-67.1709246668841
12776000,-67.2807133412558
12780000,-66.9495374329567
12784000,-66.9682713337924
12788000,-67.4461605756004
12792000,-67.7787362843869
12796000,-67.7619931693924
12800000,-67.3553763826676
12804000,-67.3168997357941
12808000,-67.3727371868025
12812000,-67.5270872711278
12816000,-67.6141116993474
12820000,-67.6348192386542
12824000,-67.6039703144279
12828000,-67.5050643179359
12832000,-67.452977357797
12836000,-67.5608948418404
12840000,-67.5985380036887
12844000,-67.6834736017062
12848000,-67.7608068506025
12852000,-67.8329205255486
12856000,-67.6866641305488
12860000,-67.470041893322
12864000,-67.4614087008022
12868000,-67.3080633328706
12872000,-67.2673931218363
12876000,-67.5638344300388
12880000,-67.6119489563464
12884000,-67.3146951253976
12888000,-67.1403610665451
12892000,-67.2331294822472
12896000,-67.5142650780713
12900000,-67.6284578812211
12904000,-67.5907434585196
12908000,-67.6759581653782
12912000,-67.3142566577541
12916000,-67.3856562010237
12920000,-67.3245127871163
12924000,-67.4018579806503
12928000,-67.5936120759309
12932000,-67.2102907937579
12936000,-67.1187471143221
12940000,-67.1923445180142
12944000,-66.9517291658033
12948000,-66.6841885196146
12952000,-66.9222439219088
12956000,-67.0761243644358
12960000,-67.3740804805449
12964000,-67.2728420489409
12968000,-67.1301458169055
12972000,-67.1871826209953
12976000,-66.9310721775143
12980000,-66.8639844828487
12984000,-67.1967168766618
12988000,-67.1619968929977
12992000,-67.1738830424033
12996000,-66.84920290758
13000000,-67.1429889668701
13004000,-67.5361467383106
13008000,-67.6348831986143
13012000,-67.7521863322395
13016000,-67.5603490835523
13020000,-67.6020387966438
13024000,-67.4653467158367
13028000,-67.3141303070583
13032000,-67.3933358109359
13036000,-67.3423108348188
13040000,-67.3965090184876
13044000,-67.1645558690287
13048000,-67.097000164504
13052000,-67.1820143241995
13056000,-67.1906809049274
13060000,-67.0615119272029
13064000,-67.1365690143805
13068000,-67.1501543678204
13072000,-67.3809681549484
13076000,-67.6156434456543
13080000,-67.6131516014944
13084000,-67.7375345310502
13088000,-67.9735965298836
13092000,-67.7434815381505
13096000,-67.4192698712334
13100000,-66.8500372653732
13104000,-66.6586176728902
13108000,-66.6001226103584
13112000,-67.0833083927877
13116000,-67.6003460741518
13120000,-67.9078221428332
13124000,-67.6702084134532
13128000,-67.2479608134469
13132000,-67.1315388765638
13136000,-67.4295540767393
13140000,-67.3607804799056
13144000,-67.4230859854609
13148000,-67.4236537177742
13152000,-67.5547147864998
13156000,-67.7995666607023
13160000,-67.83415298796
13164000,-67.3751767757168
13168000,-67.1747835153941
13172000,-66.9924066025705
13176000,-66.8339598388297
13180000,-67.0187661492381
13184000,-67.5270930222612
13188000,-68.0344307363779
13192000,-68.0609157241006
13196000,-67.7418844959311
13200000,-67.4156096655253
13204000,-67.449485883337
13208000,-67.5702422254866
13212000,-67.5089004314639
13216000,-67.1894957997518
13220000,-66.6811992813234
13224000,-66.5261733792447
13228000,-66.6018089905998
13232000,-67.0639279015378
13236000,-67.7232862403778
13240000,-67.9955844738388
13244000,-67.651686345237
13248000,-67.6836282777326
13252000,-67.8714239135409
13256000,-68.0300640193231
13260000,-67.6057968139716
13264000,-67.1147463338922
13268000,-66.8756755036167
13272000,-66.9850514088656
13276000,-67.3420211363905
13280000,-67.5539779078618
13284000,-67.5981976144379
13288000,-67.5805892419284
13292000,-67.4842920796894
13296000,-67.3550233044163
13300000,-67.5547702553313
13304000,-67.6975983722171
13308000,-67.4151473119132
13312000,-67.1029357192641
13316000,-67.2882068417342
13320000,-67.4029879712915
13324000,-67.2446293701554
13328000,-67.1703311455959
13332000,-67.3250220109758
13336000,-67.2757116929081
13340000,-67.2005373404339
13344000,-67.5253745911792
13348000,-67.7814023055032
13352000,-68.0447372718592
13356000,-67.8391622394911
13360000,-67.9111414282413
13364000,-67.8874954173991
13368000,-67.5128277026393
13372000,-67.1799044371018
13376000,-67.1402709916132
13380000,-67.3463373244117
13384000,-67.4022296463956
13388000,-67.5797287896868
13392000,-67.937833755158
13396000,-68.0493611345658
13400000,-67.6985077540057
13404000,-67.6473281290499
13408000,-67.5474251029652
13412000,-67.2231049315601
13416000,-67.0803766262283
13420000,-67.0859737448409
13424000,-67.0529222141638
13428000,-67.1070190173118
13432000,-67.2880014636159
13436000,-67.2973563246531
13440000,-67.4243257097761
13444000,-67.2883466974589
13448000,-67.1824345055905
13452000,-67.6451900720108
13456000,-67.6684183926042
13460000,-67.6457400422964
13464000,-67.5358563979043
13468000,-67.4709798156269
13472000,-67.5224575585692
13476000,-67.6857895242341
13480000,-67.5805817849946
13484000,-67.6045444858019
13488000,-67.7182315954132
13492000,-67.5615988910459
13496000,-67.6147702176486
13500000,-67.9763988169453
13504000,-67.9898764040748
13508000,-67.5272347449151
13512000,-67.2733370517191
13516000,-67.4617531339239
13520000,-67.660566594013
13524000,-67.5987047307362
13528000,-67.7681094488645
13532000,-67.916938057331
13536000,-67.7507109165244
13540000,-67.6467859813361
13544000,-67.5290939489015
13548000,-67.320923402243
13552000,-67.5663527398591
13556000,-67.6758876790884
13560000,-67.6805098841169
13564000,-67.2275274766303
13568000,-67.1065470772505
13572000,-67.3152371434911
13576000,-67.2838407504611
13580000,-67.4497014615142
13584000,-67.5403369914839
13588000,-67.3611517432277
13592000,-67.0613274115537
13596000,-67.190709941756
13600000,-67.3579155315513
13604000,-67.3661552123392
13608000,-67.9504857409288
13612000,-68.2384955339457
13616000,-67.7691448139209
13620000,-67.2968240211626
13624000,-67.4832076055505
13628000,-67.7522609861721
13632000,-67.7453362881013
13636000,-67.5939891185355
13640000,-67.6724229627165
13644000,-67.8488332490183
13648000,-67.7719177755378
13652000,-67.782504616694
13656000,-67.9510912386911
13660000,-67.9329286496108
13664000,-67.6541077008033
13668000,-67.5745263094159
13672000,-67.7411110860732
13676000,-67.80197610633
13680000,-67.6038097909606
13684000,-67.3559080840661
13688000,-67.3974254740069
13692000,-67.6300112741153
13696000,-67.8532946472157
13700000,-67.689510490389
13704000,-67.4810834177476
13708000,-67.477699675565
13712000,-67.4451914825343
13716000,-67.4902922778592
13720000,-67.613083565761
13724000,-67.4539531471324
13728000,-66.9266805303575
13732000,-65.9196131347485
13736000,-64.8190053433862
13740000,-63.7170138863049
13744000,-61.8077393673314
13748000,-60.3749354235343
13752000,-60.5147652630637
13756000,-61.7079329610872
13760000,-62.7979127656806
13764000,-63.7524448777029
13768000,-64.0302457943081
13772000,-64.7303397247473
13776000,-65.6104659800598
13780000,-66.092905738683
13784000,-66.4357913456483
13788000,-66.5878585950596
13792000,-66.4787023400629
13796000,-66.7502428221191
13800000,-67.2060071869919
13804000,-67.4958373433941
13808000,-67.3261205804465
13812000,-67.3440236380133
13816000,-67.3606272642696
13820000,-67.281536586066
13824000,-67.5896331420749
13828000,-67.8624948335805
13832000,-68.0831289658725
13836000,-68.2439682889237
13840000,-67.8868915489736
13844000,-67.8578892768561
13848000,-67.8671077526943
13852000,-67.4821319472754
13856000,-67.6217327857239
13860000,-67.6474404106395
13864000,-67.3486676654824
13868000,-67.3160563656474
13872000,-67.7866302530164
13876000,-68.1566875178036
13880000,-68.29323661123
13884000,-68.128151890329
13888000,-67.9014132156522
13892000,-68.0683527533679
13896000,-68.3786276248813
13900000,-68.2534091567349
13904000,-67.6920459000568
13908000,-67.5131052043013
13912000,-67.9132330391039
13916000,-68.4169152721206
13920000,-68.521556174536
13924000,-68.4097770547735
13928000,-68.2716554769311
13932000,-67.8351651080212
13936000,-67.8343875740735
13940000,-67.6583966818305
13944000,-67.6623085617328
13948000,-67.7874656969054
13952000,-68.025183480688
13956000,-68.0926261141298
13960000,-67.9558076498719
13964000,-68.0058304387009
13968000,-67.8077124965198
13972000,-67.9443396426971
13976000,-67.8625145733013
13980000,-67.6211427003371
13984000,-67.7659187944392
13988000,-67.8538300034897
13992000,-68.3152628450214
13996000,-68.6859725782117
14000000,-68.311491929502
14004000,-67.7810645737719
14008000,-67.9189111460992
14012000,-68.0216073916862
14016000,-68.0453394815897
14020000,-67.743315936869
14024000,-67.2758559415003
14028000,-67.3775131208718
14032000,-67.8388579555942
14036000,-68.1206078126751
14040000,-68.1280848700927
14044000,-68.2085288146201
14048000,-68.3979874230531
14052000,-68.2843096540867
14056000,-67.8991851281622
14060000,-67.8130727971317
14064000,-67.9303536139317
14068000,-67.747630710514
14072000,-67.7735545937481
14076000,-67.8697677204203
14080000,-67.5468321845245
14084000,-67.4502028309546
14088000,-67.8755364694875
14092000,-68.0554547833052
14096000,-67.8161005819872
14100000,-67.7866818075725
14104000,-67.8163074445654
14108000,-67.7278547892554
14112000,-67.8463811261946
14116000,-68.2654881795523
14120000,-68.3784231619124
14124000,-67.9068638054796
14128000,-67.6849174778098
14132000,-67.9649095190477
14136000,-68.2015745798813
14140000,-68.2402347341529
14144000,-68.0793767417224
14148000,-68.0021163848989
14152000,-67.9268651687064
14156000,-67.9126895760799
14160000,-67.8035134481593
14164000,-67.6274500970093
14168000,-67.5253721417452
14172000,-67.7968483341482
14176000,-68.170991118192
14180000,-67.8542091832773
14184000,-67.6758269525134
14188000,-67.4258420064988
14192000,-67.4900830306228
14196000,-67.7020554347153
14200000,-68.0047730028042
14204000,-67.9419268568929
14208000,-67.649597348934
14212000,-67.6417807539114
14216000,-67.728571611448
14220000,-67.8033798734812
14224000,-67.9093603982686
14228000,-67.7139504756796
14232000,-67.6561147383633
14236000,-67.8489897184009
14240000,-67.870152093472
14244000,-68.0070623212037
14248000,-67.8294420931262
14252000,-67.841221486752
14256000,-67.7595925339341
14260000,-67.5996494552029
14264000,-67.8556897565015
14268000,-68.0696936437103
14272000,-67.8655993871925
14276000,-67.9198019638498
14280000,-67.8336074281125
14284000,-67.7009981142495
14288000,-67.7267846820372
14292000,-68.1897029951394
14296000,-68.3707112367309
14300000,-68.1252046553634
14304000,-67.8446381275094
14308000,-67.3841535974275
14312000,-67.4027823126718
14316000,-68.1812522115343
14320000,-68.7089146096528
14324000,-68.5767102864577
14328000,-68.3586998211818
14332000,-68.1122067395213
14336000,-67.9130441088587
14340000,-67.7958425762359
14344000,-67.837876509651
14348000,-67.867384271111
14352000,-68.0543854255851
14356000,-68.423639989839
14360000,-68.9327668516962
14364000,-68.7819745296817
14368000,-68.2463662980763
14372000,-68.1834056192003
14376000,-68.2978883294459
14380000,-68.2111586423419
14384000,-67.8680260539206
14388000,-67.677360221367
14392000,-67.680274602772
14396000,-67.9108949367174
14400000,-68.0638479873792
14404000,-68.4013993381512
14408000,-68.417234145127
14412000,-67.8209246014348
14416000,-67.3257106866526
14420000,-67.3504280013729
14424000,-67.7874369755655
14428000,-68.1843455614044
14432000,-68.45666203152
14436000,-68.5400195066675
14440000,-68.4028052337322
14444000,-68.2174528344216
14448000,-68.4686871211556
14452000,-68.4618249218429
14456000,-68.2203634229682
14460000,-68.0745446502007
14464000,-68.0899909862789
14468000,-68.3931636413031
14472000,-68.3809813418787
14476000,-68.3822958707299
14480000,-68.4568089070086
14484000,-68.3975036527768
14488000,-68.0014265889001
14492000,-67.71843187775
14496000,-67.7514977661523
14500000,-68.2640930931506
14504000,-68.4326159769922
14508000,-68.2824571160206
14512000,-68.2475782256489
14516000,-68.0567351585721
14520000,-67.9646386309441
14524000,-68.0400437672878
14528000,-68.0452125419911
14532000,-67.8686262956766
14536000,-68.0404186173364
14540000,-68.4163299619225
14544000,-68.6122003737183
14548000,-68.5666032694712
14552000,-68.2195818195581
14556000,-67.6616508675128
14560000,-67.3337278943259
14564000,-67.3511640512496
14568000,-67.4787475706547
14572000,-67.6047153971681
14576000,-68.099198430117
14580000,-68.5107279417176
14584000,-68.5754686976192
14588000,-68.5436329321448
14592000,-68.3517691834253
14596000,-68.3951932883827
14600000,-68.1141960127075
14604000,-68.0339539596308
14608000,-68.0426770689947
14612000,-68.0833704223164
14616000,-68.0715518495922
14620000,-67.8699052352085
14624000,-67.9549124258224
14628000,-68.0167877841102
14632000,-68.0414813281786
14636000,-68.1846988123311
14640000,-68.1350389508702
14644000,-68.2710599393182
14648000,-68.5786439733387
14652000,-68.7393917026119
14656000,-68.702654942318
14660000,-68.4446385684188
14664000,-68.1715213876104
14668000,-67.9897789858003
14672000,-67.941488939343
14676000,-67.9086777777508
14680000,-67.448294906573
14684000,-67.3367536108697
14688000,-67.2973746743889
14692000,-67.4642735958145
14696000,-67.4815939212882
14700000,-67.631420529624
14704000,-67.7436482725332
14708000,-67.7260945654256
14712000,-67.9966376992681
14716000,-68.3409679673508
14720000,-68.5849505855648
14724000,-68.7497243114342
14728000,-68.5659731290931
14732000,-68.3309278909892
14736000,-68.1793138503169
14740000,-68.1061362533331
14744000,-67.9584904064047
14748000,-67.7801958425625
14752000,-68.0629803085539
14756000,-68.5359675651288
14760000,-68.6683446069051
14764000,-68.6661276274149
14768000,-68.6096389425247
14772000,-68.6976641435228
14776000,-68.7320165890263
14780000,-68.5739038334229
14784000,-68.5078797515446
14788000,-68.3461735852968
14792000,-68.1850037645823
14796000,-68.2313341673021
14800000,-68.4220228212915
14804000,-68.6720058240529
14808000,-68.6480778552409
14812000,-68.7571230961749
14816000,-68.8695278161162
14820000,-68.5549606729442
14824000,-68.1655660830144
14828000,-67.9987777166956
14832000,-68.0993933235613
14836000,-68.1167474895285
14840000,-68.1545561400109
14844000,-68.2018816984598
14848000,-67.9900882877546
14852000,-67.9992037022657
14856000,-68.2656272725339
14860000,-68.3048378933938
14864000,-68.1026094129377
14868000,-68.1927813091949
14872000,-68.5168628214965
14876000,-68.5132779357155
14880000,-68.3532783429138
14884000,-68.1811173069832
14888000,-68.5943835295464
14892000,-68.7436276211027
14896000,-68.6865544399615
14900000,-68.6080757795691
14904000,-68.6081948813901
14908000,-68.2608950544745
14912000,-68.2161971090783
14916000,-68.2436994045756
14920000,-68.3330834987512
14924000,-68.5401123227635
14928000,-68.5588706134099
14932000,-68.4768241879162
14936000,-68.4749715124972
14940000,-68.3436307556906
14944000,-68.4432481897982
14948000,-68.2224563465427
14952000,-68.2342084240877
14956000,-68.5368134082508
14960000,-68.6409577187457
14964000,-68.4725425576899
14968000,-68.2240762487518
14972000,-68.3698354706103
14976000,-68.4968215236428
14980000,-68.7218179229444
14984000,-68.7128798201315
14988000,-68.8317154867275
14992000,-68.7184380389283
14996000,-68.5224498373211
15000000,-68.4863169038568
15004000,-68.5400204344741
15008000,-68.4067051953502
15012000,-68.1518182199883
15016000,-67.9823026594356
15020000,-67.9055266821806
15024000,-67.7976023972198
15028000,-68.0472453495047
15032000,-68.2808810629603
15036000,-68.363416651033
15040000,-68.61386072019
15044000,-68.9086067020388
15048000,-69.2001500520207
15052000,-68.9108701500647
15056000,-68.6328686512463
15060000,-68.344150906605
15064000,-68.2866973893097
15068000,-68.5405312643024
15072000,-68.6223378708497
15076000,-68.5319591790109
15080000,-68.245772964722
15084000,-68.4299231639103
15088000,-68.5299621582898
15092000,-68.3173767449503
15096000,-68.188400313689
15100000,-68.4375367478811
15104000,-68.4854447043907
15108000,-68.2879571170342
15112000,-68.2054362156001
15116000,-68.1540196129938
15120000,-68.3341460040382
15124000,-68.8925923960556
15128000,-68.9237229343351
15132000,-68.7566958489768
15136000,-68.7220354651962
15140000,-68.4719837449946
15144000,-68.4485553789378
15148000,-68.425176901867
15152000,-68.587968766393
15156000,-68.4875558409355
15160000,-68.5532563831913
15164000,-68.5319866707866
15168000,-68.131960667377
15172000,-68.0493513568874
15176000,-68.1095965775869
15180000,-68.2044150418702
15184000,-68.1104842386831
15188000,-68.1867565030452
15192000,-68.4853758986262
15196000,-68.8560335898643
15200000,-68.8670563356527
15204000,-68.4674762249036
15208000,-68.1254956733549
15212000,-68.0880603170735
15216000,-68.2657433346176
15220000,-68.4724792728602
15224000,-68.4522376886679
15228000,-68.3615088697607
15232000,-68.1232140644078
15236000,-68.1780449120583
15240000,-68.2704871054888
15244000,-68.5538885156941
15248000,-68.5821676559969
15252000,-68.5586161462404
15256000,-68.4250985354994
15260000,-68.0918785086091
15264000,-67.73097220792
15268000,-67.825637693285
15272000,-68.1836535627416
15276000,-68.3727196907198
15280000,-68.2285450842204
15284000,-68.1810206283451
15288000,-68.0630058913809
15292000,-68.1315487407945
15296000,-68.5060483042175
15300000,-68.8604464242076
15304000,-69.2882445593913
15308000,-69.0038284745661
15312000,-68.630173508026
15316000,-67.8681220316746
15320000,-67.4733360355686
15324000,-67.7682690788678
15328000,-68.2696770785595
15332000,-68.4469461868077
15336000,-68.3303708151718
15340000,-68.191250107674
15344000,-68.1616105533461
15348000,-68.2605471899891
15352000,-68.5674514671767
15356000,-68.6739982901622
15360000,-68.5671822602328
15364000,-68.5374738806471
15368000,-68.5765661547239
15372000,-68.5251546227594
15376000,-68.8098138768767
15380000,-68.7894065729677
15384000,-68.4000918244325
15388000,-68.2827738822531
15392000,-68.5872572330336
15396000,-68.5668634595535
15400000,-68.2847469887378
15404000,-68.3812439958557
15408000,-68.4204714822685
15412000,-68.2746770626219
15416000,-68.2273546560077
15420000,-68.1695692086031
15424000,-67.9880336664015
15428000,-68.0725679482673
15432000,-68.4323935516456
15436000,-68.7646207360103
15440000,-69.0168290071922
15444000,-68.8115942896093
15448000,-68.5377997806949
15452000,-68.5680006468725
15456000,-68.8116955439892
15460000,-68.8396880513184
15464000,-68.3246947793136
15468000,-68.0046747597803
15472000,-67.9282783022928
15476000,-68.0978589193247
15480000,-68.2660785594865
15484000,-68.53380791312
15488000,-68.3721050259792
15492000,-68.2434252685973
15496000,-68.4498186810116
15500000,-68.6692764442803
15504000,-68.6000584563267
15508000,-68.4841248515928
15512000,-68.212461199393
15516000,-68.1107699685079
15520000,-68.0693795351891
15524000,-68.0488303648348
15528000,-68.2902867320016
15532000,-68.4264652815173
15536000,-68.387686204186
15540000,-68.4691864546333
15544000,-68.7352834087838
15548000,-68.8276293234556
15552000,-68.7178733194115
15556000,-68.612695334261
15560000,-68.461015022327
15564000,-68.6426678367654
15568000,-68.8791121234175
15572000,-68.5339831304713
15576000,-68.3404134872643
15580000,-68.3913774942355
15584000,-68.3902029885602
15588000,-68.2814494838557
15592000,-68.4778565903861
15596000,-68.6766254999616
15600000,-68.947473370658
15604000,-68.6862029736889
15608000,-68.388710217288
15612000,-68.140598194302
15616000,-68.1961891011281
15620000,-68.3107732588555
15624000,-68.4857863715204
15628000,-68.30985050865
15632000,-68.4781330287336
15636000,-68.5431512601622
15640000,-68.5879645281524
15644000,-68.8611309781206
15648000,-68.691823325539
15652000,-68.5890258900492
15656000,-68.6668617808106
15660000,-68.6382894401188
15664000,-68.5060645311496
15668000,-68.6752878604868
15672000,-68.8915817380558
15676000,-69.0969199342545
15680000,-69.0184279361672
15684000,-68.7325125587251
15688000,-68.5104244736645
15692000,-68.8021984890241
15696000,-68.8657396958871
15700000,-68.6653053844399
15704000,-68.3062013718701
15708000,-68.3086081052389
15712000,-68.640003457964
15716000,-69.0903335284123
15720000,-69.2400914755249
15724000,-68.9248390183074
15728000,-68.9450211351633
15732000,-68.7756689246291
15736000,-68.578633955817
15740000,-68.5384752694626
15744000,-68.4297560885871
15748000,-68.4017019507761
15752000,-68.7309460023521
15756000,-69.2502355364811
15760000,-69.2666816991995
15764000,-69.3568555978835
15768000,-69.0025575385795
15772000,-69.0192761794713
15776000,-69.1546185382356
15780000,-68.7635675668104
15784000,-68.2872118508139
15788000,-68.0283514561482
15792000,-68.2066998814408
15796000,-68.5840439090913
15800000,-68.8988512200163
15804000,-68.9842066411117
15808000,-69.0044346547326
15812000,-69.098240259396
15816000,-68.8240639826656
15820000,-68.4753277887737
15824000,-68.5701887341836
15828000,-68.5337833020307
15832000,-68.3189540135442
15836000,-68.3766642781732
15840000,-68.4981241083433
15844000,-68.2771686875644
15848000,-68.0991819620312
15852000,-67.9405810032273
15856000,-68.0332909063064
15860000,-68.5208951154076
15864000,-68.6390705951974
15868000,-68.6951450497412
15872000,-68.482476232565
15876000,-68.6203015453966
15880000,-68.8876075395238
15884000,-69.0983321927865
15888000,-69.4663401525341
15892000,-69.2723775706747
15896000,-68.7958846442688
15900000,-68.3816103485355
15904000,-67.8701986987867
15908000,-67.9508574564768
15912000,-68.5348912796182
15916000,-69.0864047473691
15920000,-68.8048819792654
15924000,-68.4482991396789
15928000,-68.6177638622315
15932000,-69.0345526213711
15936000,-69.1262213368247
15940000,-69.1251084444367
15944000,-69.2970476100486
15948000,-69.092883387192
15952000,-68.9951012499513
15956000,-68.945355442869
15960000,-68.7482092904595
15964000,-68.9101676580122
15968000,-69.3653896186499
15972000,-68.8827250780525
15976000,-68.5182457782709
15980000,-68.8350013240806
15984000,-69.3969018463731
15988000,-69.4136854565816
15992000,-69.2903122385353
15996000,-69.3802059714689
16000000,-68.9938499333159
