Trace
Swept SA
A.12.13,N9010A
513 B25 DP2 RTL ,01
Segment,0
Number of Points,1001
Sweep Time,0.044
Start Frequency,6000000
Stop Frequency,14000000
Average Count,0
Average Type,LogPower(Video)
RBW,9100
RBW Filter,Gaussian
RBW Filter BW,3dB
VBW,9100
Sweep Type,Swept
X Axis Scale,Lin
PreAmp State,Off
PreAmp Band,Low
Trigger Source,Periodic
Trigger Level,1
Trigger Slope,Positive
Trigger Delay,0
Phase Noise Optimization,Narrow
Swept If Gain,Low
FFT If Gain,Autorange
RF Coupling,AC
FFT Width,411900
Ext Ref,10000000
Input,RF
RF Calibrator,Off
Attenuation,10
Ref Level Offset,0
External Gain,0
Trace Type,Average
Detector,Sample
Trace Math,Off
Trace Math Oper1,Trace5
Trace Math Oper2,Trace6
Trace Math Offset,0
Trace Name,Trace1
X Axis Units,Hz
Y Axis Units,dBm
DATA
6000000,-73.7752014130984
6008000,-73.3099959023912
6016000,-74.6887375397585
6024000,-75.2988873257191
6032000,-74.9697718990612
6040000,-74.0567258745653
6048000,-73.9130136927997
6056000,-72.9378518534908
6064000,-73.763483013894
6072000,-75.2592757220771
6080000,-74.5467090687382
6088000,-74.1033750639884
6096000,-73.2357955080376
6104000,-73.3666363586493
6112000,-72.7373755996985
6120000,-72.9058835418286
6128000,-74.1239793705935
6136000,-76.6450827954974
6144000,-74.4606794473733
6152000,-74.2333491842561
6160000,-75.506813686796
6168000,-75.5454366038479
6176000,-76.7202256151483
6184000,-74.7905654104432
6192000,-75.6699427515354
6200000,-74.7101000181926
6208000,-73.692137687973
6216000,-74.2845541318938
6224000,-74.8741512112087
6232000,-73.918514637364
6240000,-74.0416854434048
6248000,-75.2682625032699
6256000,-74.7728423015244
6264000,-73.6917245898862
6272000,-73.9068308244808
6280000,-73.1121918203735
6288000,-72.8750271081192
6296000,-73.4093538942993
6304000,-75.3642033636603
6312000,-74.2949590496144
6320000,-73.6593852027932
6328000,-74.074264412732
6336000,-74.4543377595028
6344000,-73.9624180083549
6352000,-73.8365849721049
6360000,-75.3271493612826
6368000,-75.4275522530983
6376000,-72.5319538771565
6384000,-72.7087783461131
6392000,-73.6530768362811
6400000,-72.7725953411541
6408000,-72.7853422796508
6416000,-72.9546681746374
6424000,-73.779293288671
6432000,-74.494156586997
6440000,-74.0765226956272
6448000,-72.6176154254651
6456000,-73.2684686112305
6464000,-73.4010434366063
6472000,-73.9654484679063
6480000,-73.9798075056494
6488000,-75.3892621990574
6496000,-75.2980017245595
6504000,-74.5743529413999
6512000,-74.7725774704827
6520000,-74.8387816492341
6528000,-74.301042867378
6536000,-74.4511459929015
6544000,-73.784309984403
6552000,-73.6517834671695
6560000,-74.4389355265144
6568000,-73.4679906690619
6576000,-72.6842391408546
6584000,-74.0565854528495
6592000,-74.2888623346871
6600000,-74.6733481156514
6608000,-73.1451385236018
6616000,-73.0525480337199
6624000,-75.0176794598358
6632000,-74.6325091750801
6640000,-75.0562375604858
6648000,-74.9075118838111
6656000,-75.7584597017991
6664000,-74.7880837526388
6672000,-73.7570117439263
6680000,-73.8966432382553
6688000,-74.382822979026
6696000,-75.5869390828888
6704000,-75.579027373451
6712000,-76.1628691568605
6720000,-74.7630181436774
6728000,-74.2819796880828
6736000,-75.9986923474811
6744000,-75.3256780992092
6752000,-74.7490240584128
6760000,-75.20250228734
6768000,-74.2166468277102
6776000,-74.3102071127862
6784000,-73.5918302167411
6792000,-73.9212543463335
6800000,-74.1402276164973
6808000,-73.768700554146
6816000,-74.1847933192219
6824000,-73.4991575295143
6832000,-74.7193735048902
6840000,-76.4806823233507
6848000,-74.3919078529474
6856000,-74.5700071740956
6864000,-74.0623865107158
6872000,-73.9841070401848
6880000,-73.9262536439748
6888000,-75.2936610624734
6896000,-75.7354791317331
6904000,-75.2168881885608
6912000,-74.3155190317069
6920000,-74.7004655129765
6928000,-74.1096156722877
6936000,-75.1290053863986
6944000,-75.2025138780371
6952000,-74.2614478653366
6960000,-74.6605923092229
6968000,-74.3639336451375
6976000,-74.4144941984028
6984000,-73.8182737437711
6992000,-73.0643561219605
7000000,-73.945063604997
7008000,-75.543524125752
7016000,-75.5801429645234
7024000,-74.9400469494848
7032000,-73.8733353289199
7040000,-73.8172346294322
7048000,-73.8237424283429
7056000,-73.3267324858548
7064000,-74.6683172370942
7072000,-73.6956721412063
7080000,-73.4999022382867
7088000,-74.1324263051495
7096000,-74.103726745876
7104000,-74.2094703568647
7112000,-73.7412295014239
7120000,-73.6327320046615
7128000,-74.7716106262251
7136000,-74.3083986551257
7144000,-75.2892492871197
7152000,-74.6729335281077
7160000,-74.6481795714404
7168000,-75.1080967589615
7176000,-73.937024528266
7184000,-73.0963453753156
7192000,-74.1775742129086
7200000,-73.3177581944111
7208000,-74.0862291528214
7216000,-76.7322908382802
7224000,-75.3679492645311
7232000,-75.2477393237008
7240000,-74.6879547916201
7248000,-74.3287066735026
7256000,-75.7322989385427
7264000,-76.0482310465032
7272000,-76.3835429450433
7280000,-76.3232732793741
7288000,-75.0070258665627
7296000,-75.2046837004526
7304000,-75.6360025180703
7312000,-74.9151635394377
7320000,-76.2344616717787
7328000,-74.8558221206304
7336000,-74.6741899402458
7344000,-74.809664876302
7352000,-75.9010274127924
7360000,-74.576066312283
7368000,-74.2136819695497
7376000,-75.2347741074501
7384000,-75.260455828194
7392000,-75.3983745934791
7400000,-74.3929669210114
7408000,-74.2136895957661
7416000,-75.5866357290533
7424000,-75.1681384804973
7432000,-74.4149722965847
7440000,-74.2305930201107
7448000,-73.4367946567899
7456000,-73.7161951882868
7464000,-74.1817380253303
7472000,-73.5532375370183
7480000,-74.6687955386817
7488000,-74.790165917093
7496000,-74.4365096151191
7504000,-73.9753990059696
7512000,-73.9708386424519
7520000,-74.3680321292444
7528000,-74.547648687648
7536000,-73.9648432240297
7544000,-73.6050210472434
7552000,-74.7879121976805
7560000,-73.4131884498867
7568000,-74.0728025628522
7576000,-75.0860545614323
7584000,-76.023286074185
7592000,-74.6893321773342
7600000,-74.9848555504744
7608000,-73.9168771031934
7616000,-73.3823891210801
7624000,-74.0297578252602
7632000,-73.7687284512917
7640000,-74.6621609046812
7648000,-74.3313829295433
7656000,-75.3982536549662
7664000,-74.6333715959776
7672000,-74.5742207069395
7680000,-75.3546397953098
7688000,-75.3753863511612
7696000,-73.6722885415309
7704000,-73.6870620807328
7712000,-75.1060072061671
7720000,-74.7624591804383
7728000,-74.5226323796724
7736000,-74.227690770444
7744000,-74.0310803669134
7752000,-74.9006985884395
7760000,-75.285169690167
7768000,-75.7525552190582
7776000,-74.7739502298129
7784000,-74.5936272050274
7792000,-75.9042245319364
7800000,-75.412100264608
7808000,-75.6904156140694
7816000,-75.0549394567036
7824000,-74.4613901860004
7832000,-74.1647303089837
7840000,-74.1066465691193
7848000,-75.2983581812765
7856000,-75.0890750534479
7864000,-75.4039256701457
7872000,-75.2472086453645
7880000,-75.4366738031416
7888000,-75.1135120622595
7896000,-74.5633759839599
7904000,-75.4441906898554
7912000,-74.5245676715279
7920000,-74.4828042626286
7928000,-75.6568406320378
7936000,-75.2932346892752
7944000,-74.5337717072509
7952000,-74.3620253719729
7960000,-73.6223834836714
7968000,-75.1657808080262
7976000,-75.3386988023844
7984000,-74.2955871615883
7992000,-74.0772419369843
8000000,-75.5168651687672
8008000,-74.9029852015729
8016000,-74.9883985509745
8024000,-74.3627920000874
8032000,-74.1629666687816
8040000,-74.7329643038366
8048000,-74.8599845695349
8056000,-73.9024154942793
8064000,-75.3501941003643
8072000,-75.4649863769326
8080000,-74.9317485471432
8088000,-74.4797687544525
8096000,-74.2424022596176
8104000,-74.8878807937904
8112000,-74.1380069390119
8120000,-74.1968664213922
8128000,-74.0409319044429
8136000,-74.4133341576001
8144000,-75.1759961564736
8152000,-74.403424314715
8160000,-73.8081514857512
8168000,-75.1148939990603
8176000,-75.1438819268213
8184000,-74.5195374848602
8192000,-73.5668178144603
8200000,-73.8815221024918
8208000,-73.4832468034949
8216000,-74.8514393550521
8224000,-75.0656548367657
8232000,-75.0286282185824
8240000,-74.4142091607878
8248000,-74.906622170065
8256000,-75.9410715955218
8264000,-75.3780605308235
8272000,-75.5866930702478
8280000,-75.4656503796037
8288000,-75.1138893095818
8296000,-74.4605512761267
8304000,-74.3768684842953
8312000,-74.3349021889663
8320000,-74.497255711819
8328000,-74.1012270982208
8336000,-75.237370143869
8344000,-76.5588803068742
8352000,-74.2425767933396
8360000,-75.0008568508763
8368000,-74.9223168507227
8376000,-75.6845289815739
8384000,-75.3845510331452
8392000,-75.362347626386
8400000,-74.8910265526528
8408000,-75.9368056316612
8416000,-75.7611036593651
8424000,-76.7215580723524
8432000,-75.2482835384846
8440000,-75.0632142232403
8448000,-74.8129085355967
8456000,-76.9183342588506
8464000,-76.8505673457831
8472000,-77.2845698498321
8480000,-75.4555902381123
8488000,-74.5454936508219
8496000,-74.7836019319568
8504000,-74.5729387413468
8512000,-75.3181331629854
8520000,-74.4863219046348
8528000,-75.1312866355344
8536000,-75.1236865674847
8544000,-73.4593647606479
8552000,-76.1693407613721
8560000,-76.1195868858483
8568000,-73.5242430257257
8576000,-73.9142946571892
8584000,-75.6150299199187
8592000,-74.3881437429323
8600000,-73.8508084610057
8608000,-73.009133301306
8616000,-74.3761889934192
8624000,-74.7706940224142
8632000,-74.308729832335
8640000,-74.639162954697
8648000,-74.3585362829688
8656000,-74.9682024600098
8664000,-75.0941450702718
8672000,-73.9333555432846
8680000,-72.3468641180577
8688000,-71.7739935300873
8696000,-73.2623188368006
8704000,-73.425826013411
8712000,-73.3781527469561
8720000,-73.6945033002579
8728000,-75.6976814406116
8736000,-75.228424755856
8744000,-74.1595725292573
8752000,-73.2521935130732
8760000,-73.428435134549
8768000,-73.9267958189982
8776000,-73.7953344131432
8784000,-74.7241255179978
8792000,-73.6935534874682
8800000,-73.0946047962181
8808000,-74.4113716798386
8816000,-74.787918249149
8824000,-74.9687370310539
8832000,-73.8567232410725
8840000,-74.587792640301
8848000,-73.8861746269189
8856000,-74.6639789651437
8864000,-74.5454506631701
8872000,-74.7328722848288
8880000,-77.1144436622417
8888000,-77.000156760247
8896000,-75.8434804159172
8904000,-76.3548974699699
8912000,-75.608032702805
8920000,-75.549698588561
8928000,-74.7946414764217
8936000,-75.5777548670928
8944000,-74.0991759038895
8952000,-73.4489645830328
8960000,-74.7875493275002
8968000,-74.1702063313208
8976000,-74.9817107447214
8984000,-76.6544632926252
8992000,-75.4020753534572
9000000,-74.8199419593827
9008000,-74.8112544069297
9016000,-74.226267784499
9024000,-74.4809816668658
9032000,-74.6732317567011
9040000,-73.4398884296735
9048000,-75.5511943282767
9056000,-74.8654781115765
9064000,-73.835822707301
9072000,-73.5642848444428
9080000,-74.3941000148235
9088000,-73.489465046811
9096000,-73.7353275836875
9104000,-72.8958470689344
9112000,-73.1143288489695
9120000,-74.0087445928636
9128000,-74.6013169841249
9136000,-75.5042045212494
9144000,-74.4075070543523
9152000,-74.2652705396269
9160000,-73.6722150937236
9168000,-73.3657340473952
9176000,-72.7557869291857
9184000,-72.9651102336134
9192000,-74.7040129308561
9200000,-73.0311394316023
9208000,-72.1571855806254
9216000,-73.2558871496401
9224000,-72.9952400837732
9232000,-73.7436506200818
9240000,-73.8817672263414
9248000,-72.7730284560532
9256000,-73.5658532912763
9264000,-72.293217640506
9272000,-72.5860954742619
9280000,-72.8166613189368
9288000,-71.7198228514676
9296000,-71.0475435428137
9304000,-72.5077328586149
9312000,-72.1424408832464
9320000,-71.4612292536165
9328000,-73.1198977403242
9336000,-73.7055997498626
9344000,-73.1976399170553
9352000,-72.6421697192566
9360000,-71.0751959928518
9368000,-72.0765978043364
9376000,-72.6979853472423
9384000,-72.9036066145703
9392000,-72.4498542284332
9400000,-72.9350420588641
9408000,-71.9494521613115
9416000,-71.080028723686
9424000,-71.7346733439992
9432000,-72.0886240804976
9440000,-73.2581208288486
9448000,-73.5934825750435
9456000,-74.0445533662808
9464000,-73.4628761013012
9472000,-71.9598357100681
9480000,-72.609214758445
9488000,-72.1406411495829
9496000,-70.8750112496923
9504000,-72.6623680510262
9512000,-73.1908888024163
9520000,-73.4430697621884
9528000,-74.241673648642
9536000,-71.478391337098
9544000,-69.9979026232231
9552000,-70.7847206407684
9560000,-71.5973688745386
9568000,-73.0342469965111
9576000,-73.1977807803794
9584000,-73.751891867113
9592000,-71.0449036531847
9600000,-69.4094315559347
9608000,-69.4716950699678
9616000,-66.3096032896431
9624000,-68.0400144231339
9632000,-73.2564490722177
9640000,-72.5297606543025
9648000,-70.0994326526478
9656000,-69.5163283090069
9664000,-67.2414027450734
9672000,-66.8358078684575
9680000,-68.8988509322197
9688000,-70.0574642504183
9696000,-71.1340526086605
9704000,-71.0695891880777
9712000,-69.9243894348357
9720000,-67.2284514252786
9728000,-65.637339990497
9736000,-67.0241231074967
9744000,-65.0507983002419
9752000,-66.3028797453006
9760000,-69.6004677052359
9768000,-69.7542893377157
9776000,-67.6456798748862
9784000,-65.2839091298873
9792000,-62.4171876796079
9800000,-62.4297588354483
9808000,-64.8001364883267
9816000,-63.5109453837992
9824000,-64.6469722005865
9832000,-62.2669391464893
9840000,-59.1160068922708
9848000,-57.2860210015099
9856000,-58.9677822743548
9864000,-60.9520093409178
9872000,-61.6917318096191
9880000,-60.566210996404
9888000,-54.7585706894404
9896000,-55.6929193030995
9904000,-59.1232359861561
9912000,-57.9389796855402
9920000,-52.0023121901814
9928000,-47.9725450967788
9936000,-48.8749842033331
9944000,-44.2023152690498
9952000,-45.8672620449781
9960000,-43.826259287676
9968000,-34.8936869946758
9976000,-26.8212021803112
9984000,-23.7184845688827
9992000,-22.8748117428594
10000000,-20.6540695745834
10008000,-19.9571783799767
10016000,-23.311806652043
10024000,-28.4472053392954
10032000,-38.187723354407
10040000,-42.4533371913234
10048000,-46.8181614090527
10056000,-45.2795562070297
10064000,-49.7905461267913
10072000,-49.4680351604475
10080000,-52.8315474873791
10088000,-57.2732122170621
10096000,-61.1683534205589
10104000,-56.0715102325266
10112000,-54.2870081770667
10120000,-59.2506750900706
10128000,-59.7442576446275
10136000,-61.5173230651186
10144000,-58.55478868211
10152000,-56.8917346291596
10160000,-58.8814323422377
10168000,-63.7952564480106
10176000,-65.1085153938269
10184000,-65.4042103949992
10192000,-64.2388195536631
10200000,-61.7516656363816
10208000,-64.2912631843522
10216000,-66.5821731839692
10224000,-68.4014271959746
10232000,-69.7418219675733
10240000,-71.0499166117213
10248000,-69.0068982710313
10256000,-66.8041250289372
10264000,-67.6886994033089
10272000,-64.8346505073436
10280000,-65.9674746018606
10288000,-69.5234308914955
10296000,-70.404540212794
10304000,-69.0814377730524
10312000,-68.4720440918207
10320000,-69.1235321900929
10328000,-71.5114843554779
10336000,-68.043881211042
10344000,-71.4346266735873
10352000,-70.4348827792828
10360000,-70.4414843294568
10368000,-71.4643514883025
10376000,-70.382981484168
10384000,-68.6464233847643
10392000,-71.3803088119705
10400000,-69.8704620486814
10408000,-70.1730694767745
10416000,-71.1519292929622
10424000,-72.7311088763322
10432000,-72.9619943605626
10440000,-72.4904340202487
10448000,-72.2821580109711
10456000,-70.9389888256332
10464000,-72.5920243371402
10472000,-73.7862475133759
10480000,-73.013610987457
10488000,-74.4631404765
10496000,-73.888528717854
10504000,-73.3114587520239
10512000,-74.2975891849518
10520000,-75.3198128736102
10528000,-74.8018042691234
10536000,-74.6645935634995
10544000,-73.9274881365203
10552000,-74.1459479371928
10560000,-73.7001750397182
10568000,-73.3660033771464
10576000,-72.6741562429992
10584000,-71.7678958175582
10592000,-73.0231395262442
10600000,-73.2255175333155
10608000,-74.1736067614917
10616000,-75.2478277617171
10624000,-74.3099018924673
10632000,-72.7256986892003
10640000,-74.1814523417894
10648000,-74.2734970256056
10656000,-74.1569275561979
10664000,-75.5596443233642
10672000,-74.2583016947771
10680000,-73.4439643754646
10688000,-73.8389499913862
10696000,-74.069996468206
10704000,-74.2798510029874
10712000,-73.8917519206757
10720000,-74.1068454439316
10728000,-74.8749791065991
10736000,-75.1484151152137
10744000,-75.0763243567229
10752000,-72.941890969406
10760000,-73.5902806853422
10768000,-73.9333990119646
10776000,-74.4610723311024
10784000,-74.2325923193265
10792000,-73.6603814660391
10800000,-73.3849069568115
10808000,-73.5914089447003
10816000,-73.8029226204364
10824000,-74.6698986186892
10832000,-74.5231109729928
10840000,-74.2642121615096
10848000,-73.2690727672814
10856000,-73.4761501647255
10864000,-75.4296259853261
10872000,-76.084531920773
10880000,-76.3253879404361
10888000,-74.0262368172417
10896000,-73.3747123514677
10904000,-74.2240359033935
10912000,-75.9488841856968
10920000,-74.5830919067757
10928000,-73.2861156055162
10936000,-72.4407955389635
10944000,-73.6764273772405
10952000,-74.1239761757405
10960000,-74.5392010175804
10968000,-75.286687127062
10976000,-75.9486761386078
10984000,-76.8013376505455
10992000,-76.4225848209586
11000000,-75.3316918378917
11008000,-74.7952673941547
11016000,-74.9346813689858
11024000,-75.3136883523747
11032000,-75.6290074350977
11040000,-75.275402231766
11048000,-74.3462139040656
11056000,-76.5113985159369
11064000,-75.6209778666745
11072000,-75.9857101561294
11080000,-76.068913174223
11088000,-74.3827806862082
11096000,-74.9984906802651
11104000,-75.9804564269674
11112000,-76.5571697619303
11120000,-76.2254861120256
11128000,-77.0005140606743
11136000,-76.847894212094
11144000,-76.731035045274
11152000,-76.760093717002
11160000,-75.5925496872543
11168000,-76.2654880590632
11176000,-77.1636340496793
11184000,-75.8918806582521
11192000,-75.4101759954791
11200000,-75.2131421807342
11208000,-75.5119506297754
11216000,-75.6214132119065
11224000,-75.7230845226953
11232000,-75.7995291611011
11240000,-75.1585124623994
11248000,-75.0459657078968
11256000,-74.2961292046922
11264000,-74.1081224558934
11272000,-75.0487226464946
11280000,-75.7064478157716
11288000,-76.0319168809671
11296000,-74.3139874977091
11304000,-73.8547492066177
11312000,-74.2403306596923
11320000,-74.9637183777791
11328000,-73.8652014701135
11336000,-74.548233038625
11344000,-75.1897969907011
11352000,-75.0827302128402
11360000,-76.3353879248512
11368000,-76.3088445180698
11376000,-76.0653126266868
11384000,-74.4020508058749
11392000,-73.8247296877404
11400000,-75.5894338251011
11408000,-74.6004227689793
11416000,-76.7262478020647
11424000,-75.554956775212
11432000,-76.0813178225916
11440000,-78.1453757559416
11448000,-76.4929224952801
11456000,-75.4325286052183
11464000,-75.5969262929258
11472000,-76.5753769756412
11480000,-76.6263002031516
11488000,-74.8951475923933
11496000,-75.1129732846613
11504000,-76.831515989118
11512000,-75.5659790133469
11520000,-75.0346257002503
11528000,-75.4760909727412
11536000,-75.4130677659865
11544000,-76.1774765924304
11552000,-76.1633017087055
11560000,-75.0491214412723
11568000,-74.2776184488831
11576000,-75.5584959676171
11584000,-75.1294599561457
11592000,-74.4469911002569
11600000,-75.43495842505
11608000,-76.8771053613072
11616000,-76.6631717277901
11624000,-76.1025672417939
11632000,-76.1993125673127
11640000,-76.321998357833
11648000,-76.2764118394261
11656000,-75.3656814305687
11664000,-75.0044195603784
11672000,-74.961402136641
11680000,-76.2163391742571
11688000,-75.954354062051
11696000,-76.2717367024012
11704000,-75.8716257632129
11712000,-75.809150819155
11720000,-76.0271994559685
11728000,-75.6034147606446
11736000,-75.8377714360065
11744000,-76.7085331425448
11752000,-77.4851964255736
11760000,-76.3998437644203
11768000,-76.4280981825949
11776000,-76.486355172365
11784000,-77.2596961551128
11792000,-75.3866042956614
11800000,-75.9796133764997
11808000,-74.8242898111451
11816000,-75.5430887519789
11824000,-75.7067598654823
11832000,-76.5039248300347
11840000,-75.6931771358537
11848000,-75.3254207287705
11856000,-75.1523978832404
11864000,-74.6034923029598
11872000,-76.7891493117282
11880000,-77.1553511777892
11888000,-76.5001674031742
11896000,-76.1695918500694
11904000,-74.8774027464204
11912000,-74.1910741683116
11920000,-75.8466306095303
11928000,-76.08503650272
11936000,-77.3159480011728
11944000,-74.9598952654144
11952000,-73.9123670804935
11960000,-76.1549161528657
11968000,-76.3245032711171
11976000,-77.2639394856462
11984000,-76.912101209308
11992000,-75.9781518909206
12000000,-76.3385846393185
12008000,-75.9445541289145
12016000,-75.993753835591
12024000,-76.2674874031127
12032000,-75.7197973541933
12040000,-75.4862966616973
12048000,-74.5745788940802
12056000,-75.8210341339353
12064000,-77.3711750442501
12072000,-77.5251182671651
12080000,-77.7679204771079
12088000,-75.3290542439235
12096000,-75.3453439865037
12104000,-76.5227982305992
12112000,-76.198001270891
12120000,-76.2232835774384
12128000,-76.9153283176183
12136000,-75.6838134585544
12144000,-76.5499381778591
12152000,-76.6463475818049
12160000,-76.7232462209114
12168000,-75.3475760462175
12176000,-75.8882606744196
12184000,-76.384104549536
12192000,-75.933372723839
12200000,-76.7886678039669
12208000,-76.5593712403522
12216000,-75.9343116970106
12224000,-77.1959894204336
12232000,-76.453633736813
12240000,-75.4993004680722
12248000,-75.0144626958515
12256000,-76.0992053033666
12264000,-77.3037103901435
12272000,-77.6072911731315
12280000,-75.6273421915893
12288000,-75.2324825204497
12296000,-75.8133039042339
12304000,-76.1396389610784
12312000,-76.6582251245179
12320000,-76.8678219035665
12328000,-76.3744994008999
12336000,-76.3306048635766
12344000,-76.2574335313499
12352000,-76.1208589468218
12360000,-76.8558101453628
12368000,-76.0759443657521
12376000,-76.9276266511387
12384000,-76.109627036208
12392000,-75.5703200442999
12400000,-74.3493610186467
12408000,-76.1092265061178
12416000,-75.732904105824
12424000,-74.8497047267889
12432000,-76.3117520815926
12440000,-75.8671987993052
12448000,-76.2372783283969
12456000,-75.2259396874605
12464000,-75.5024261232155
12472000,-75.2900815283612
12480000,-75.6135479568592
12488000,-75.255534959887
12496000,-76.2349855691974
12504000,-75.3710686919886
12512000,-76.6435102232026
12520000,-76.4907648856572
12528000,-76.2018243662456
12536000,-75.1237980646397
12544000,-75.2364782717778
12552000,-74.8151218011763
12560000,-75.3030758282003
12568000,-75.7284844141632
12576000,-76.5464887552994
12584000,-77.7026129118063
12592000,-76.4939443582068
12600000,-76.1784213149689
12608000,-75.3728032186229
12616000,-75.3147849197887
12624000,-76.0180254844289
12632000,-76.7045938217489
12640000,-77.2020183859413
12648000,-76.8055368776512
12656000,-76.6378730060009
12664000,-76.1296761374791
12672000,-76.73234179214
12680000,-76.9163944664964
12688000,-76.3058683781397
12696000,-76.4419497612308
12704000,-75.8402423529281
12712000,-76.2118101338316
12720000,-76.1126837469711
12728000,-76.5297127948398
12736000,-75.9018070843491
12744000,-76.2625741863139
12752000,-78.5853241594107
12760000,-75.9025536109562
12768000,-74.4809710025042
12776000,-74.2169963377227
12784000,-74.9660658353937
12792000,-75.4297803445529
12800000,-76.6441234529432
12808000,-76.9565467572207
12816000,-77.397249905036
12824000,-77.5541763318608
12832000,-77.6194535546858
12840000,-77.2240914626813
12848000,-75.4049259529863
12856000,-75.8955848242158
12864000,-76.4819425716941
12872000,-75.94406852694
12880000,-77.5897508957286
12888000,-77.1008199066079
12896000,-76.7370088866798
12904000,-76.2664536256042
12912000,-74.9701078314919
12920000,-74.6125918146405
12928000,-76.6073066743354
12936000,-75.3132556309542
12944000,-75.4196104284936
12952000,-75.4161237436828
12960000,-77.2667995843248
12968000,-76.4962624464164
12976000,-75.7283002170308
12984000,-75.8726154390585
12992000,-75.9951269365093
13000000,-76.0853083311634
13008000,-77.1350651038841
13016000,-75.7752676408237
13024000,-75.3505085058607
13032000,-77.2789828604936
13040000,-76.2469022033334
13048000,-76.5542755755346
13056000,-76.1903593512048
13064000,-76.7366100594752
13072000,-76.2526316113223
13080000,-76.748467482164
13088000,-75.5677914472519
13096000,-76.3869553278156
13104000,-76.0433896122996
13112000,-76.3199724303676
13120000,-76.8148948259878
13128000,-76.8597066836563
13136000,-76.5772242308033
13144000,-77.4618129339301
13152000,-77.4075398979419
13160000,-75.5009617523191
13168000,-75.5996411304078
13176000,-77.9273756138584
13184000,-77.8766793642329
13192000,-76.5017581844633
13200000,-75.9096077311757
13208000,-75.6029707547527
13216000,-75.4137616679133
13224000,-76.2304316581273
13232000,-77.6847764437433
13240000,-77.8114033256942
13248000,-76.4125690191537
13256000,-75.6715644355784
13264000,-76.4229952427369
13272000,-77.5067924036128
13280000,-77.5054535207958
13288000,-76.4934806801175
13296000,-76.0496238357781
13304000,-76.1294299820883
13312000,-77.8042937645299
13320000,-76.4178153415801
13328000,-76.9911171980068
13336000,-76.4735411845691
13344000,-77.0422649255021
13352000,-76.4178740764282
13360000,-76.7752499208978
13368000,-76.3250674261458
13376000,-76.6917633822135
13384000,-76.3315342450587
13392000,-76.741799148104
13400000,-77.5015146092615
13408000,-76.7651837875849
13416000,-77.0429518216202
13424000,-77.7029981409005
13432000,-76.9741046868402
13440000,-75.9564286864162
13448000,-76.2858443994166
13456000,-75.2621927063878
13464000,-76.0629220161978
13472000,-77.66215846023
13480000,-76.8204812970913
13488000,-77.8511029649455
13496000,-76.3277504918483
13504000,-76.2524869128162
13512000,-76.933916341288
13520000,-76.1816732770103
13528000,-76.7546342846665
13536000,-77.8235914660676
13544000,-77.4734889577467
13552000,-77.1253750107146
13560000,-77.0286679942313
13568000,-77.042068468884
13576000,-77.1911112689029
13584000,-76.2736545958892
13592000,-77.1336412334274
13600000,-76.7832304436567
13608000,-75.8675814550903
13616000,-77.3808057487698
13624000,-77.3147403169043
13632000,-75.4408970429415
13640000,-75.3728863014246
13648000,-75.7448297424738
13656000,-76.4124597790464
13664000,-76.4126213536527
13672000,-76.9137928925652
13680000,-76.6435577126315
13688000,-76.6860225361371
13696000,-77.3230912319223
13704000,-74.9602895646679
13712000,-75.9400070407747
13720000,-76.6894356088455
13728000,-76.5740817586031
13736000,-75.2571712548604
13744000,-75.6146057947682
13752000,-77.8205337648409
13760000,-76.7386393520283
13768000,-76.4998424839427
13776000,-76.8809632038236
13784000,-76.8180130992165
13792000,-76.8010326974597
13800000,-77.6332476251162
13808000,-77.4840346902794
13816000,-77.8133963461594
13824000,-76.6968025433255
13832000,-76.6266972556334
13840000,-76.3527211393415
13848000,-76.4516781348724
13856000,-76.0986391001199
13864000,-76.3824434726297
13872000,-75.5850188774722
13880000,-75.0669306680914
13888000,-75.6454900873773
13896000,-75.5500641777917
13904000,-76.0445691398282
13912000,-77.2302298481982
13920000,-77.7864299986818
13928000,-78.2616321278416
13936000,-77.5821741850859
13944000,-76.508512703831
13952000,-75.5334427339448
13960000,-77.2681394847446
13968000,-77.6686529171101
13976000,-77.3036703987039
13984000,-77.2556921720604
13992000,-76.4420448281102
14000000,-76.3751997907185
