Trace
Swept SA
A.12.13,N9010A
513 B25 DP2 RTL ,01
Segment,0
Number of Points,1001
Sweep Time,0.044
Start Frequency,6000000
Stop Frequency,14000000
Average Count,0
Average Type,LogPower(Video)
RBW,9100
RBW Filter,Gaussian
RBW Filter BW,3dB
VBW,9100
Sweep Type,Swept
X Axis Scale,Lin
PreAmp State,Off
PreAmp Band,Low
Trigger Source,Periodic
Trigger Level,1
Trigger Slope,Positive
Trigger Delay,0
Phase Noise Optimization,Narrow
Swept If Gain,Low
FFT If Gain,Autorange
RF Coupling,AC
FFT Width,411900
Ext Ref,10000000
Input,RF
RF Calibrator,Off
Attenuation,10
Ref Level Offset,0
External Gain,0
Trace Type,Average
Detector,Sample
Trace Math,Off
Trace Math Oper1,Trace5
Trace Math Oper2,Trace6
Trace Math Offset,0
Trace Name,Trace1
X Axis Units,Hz
Y Axis Units,dBm
DATA
6000000,-74.7532105706222
6008000,-73.1147633362375
6016000,-73.1190762873104
6024000,-73.3760157358675
6032000,-71.6773607847273
6040000,-72.4578436889245
6048000,-71.9296507108251
6056000,-72.0741549898957
6064000,-73.6762447137583
6072000,-73.9798785909213
6080000,-73.9058181409716
6088000,-73.8304524242596
6096000,-74.0536292266146
6104000,-73.792325356155
6112000,-74.0871298242896
6120000,-73.2024956749897
6128000,-72.6642154251897
6136000,-73.7686902491161
6144000,-73.093155734048
6152000,-73.3511627752849
6160000,-72.8944316449539
6168000,-73.311226755863
6176000,-74.1561272527143
6184000,-74.8375640428724
6192000,-73.2664077641993
6200000,-73.3120550472302
6208000,-73.8063246783527
6216000,-72.4010848794352
6224000,-72.4886684265682
6232000,-72.2053572459521
6240000,-73.3911947483561
6248000,-74.0233775329518
6256000,-72.6656313555392
6264000,-73.4659248090188
6272000,-74.3128121660846
6280000,-74.1329261064394
6288000,-73.2815002587068
6296000,-74.4635333093722
6304000,-74.1045919627991
6312000,-74.7123651882281
6320000,-74.3509459620468
6328000,-74.2982608634969
6336000,-73.4810275238299
6344000,-73.995996384734
6352000,-74.2951910759119
6360000,-73.6260047875561
6368000,-73.4325085264231
6376000,-74.2442795855704
6384000,-73.4354374210717
6392000,-73.502165883363
6400000,-72.6777275520987
6408000,-73.7639821148311
6416000,-73.8967395649747
6424000,-73.0419731852288
6432000,-74.1939789851757
6440000,-75.1574613294007
6448000,-75.042059653417
6456000,-73.9775756849435
6464000,-73.9817703405063
6472000,-73.8717608477598
6480000,-75.4229909129816
6488000,-74.8940998445169
6496000,-76.2828585613042
6504000,-75.1599929793509
6512000,-74.6247730423026
6520000,-73.9975203825019
6528000,-75.600654805483
6536000,-73.3880441757798
6544000,-73.173219598794
6552000,-73.5939597883857
6560000,-74.3492739855186
6568000,-74.6163359794494
6576000,-73.7657802506421
6584000,-73.9231385718473
6592000,-72.9777791411731
6600000,-73.4180731753
6608000,-72.9064738443912
6616000,-74.5867542192165
6624000,-75.375766553871
6632000,-75.4196319609864
6640000,-73.3682592927663
6648000,-75.1775833760854
6656000,-73.9125350794905
6664000,-73.639848164526
6672000,-73.9439488203292
6680000,-74.2794466356767
6688000,-74.4797455948326
6696000,-74.056007805096
6704000,-73.8265422961306
6712000,-74.2235834876811
6720000,-73.0674733936613
6728000,-74.8580725531282
6736000,-74.3849233443648
6744000,-74.1960088660828
6752000,-73.0021005961307
6760000,-73.4720722143571
6768000,-74.1733069564713
6776000,-74.677715685385
6784000,-73.7897085731431
6792000,-74.1646361416544
6800000,-75.1003985273349
6808000,-73.8251947479945
6816000,-74.0786441014506
6824000,-74.2886331655371
6832000,-74.2085222163987
6840000,-73.1721105008385
6848000,-74.0220698319592
6856000,-74.5975112061931
6864000,-73.6128690059522
6872000,-72.6270135170821
6880000,-72.450842235526
6888000,-74.4237488755398
6896000,-73.3044878442753
6904000,-74.0506115750124
6912000,-75.6369621513696
6920000,-75.964412426474
6928000,-74.897312038665
6936000,-74.2989508332859
6944000,-73.7077049725303
6952000,-73.8639256303361
6960000,-73.2695522362685
6968000,-72.4064125688758
6976000,-72.1151340375849
6984000,-73.152665946466
6992000,-73.5456675568381
7000000,-73.6695749796066
7008000,-73.9428343131814
7016000,-73.1430886313736
7024000,-73.8437511334724
7032000,-75.0210315869633
7040000,-74.6013433192735
7048000,-73.4794685260117
7056000,-74.1958326278178
7064000,-74.6920356476577
7072000,-74.397805803004
7080000,-74.4849027002166
7088000,-73.6847820557986
7096000,-73.7926180177792
7104000,-74.2250886555217
7112000,-74.8173684230417
7120000,-75.1182026503572
7128000,-74.7946096943701
7136000,-74.0872020266356
7144000,-75.0324707862465
7152000,-73.7447837017022
7160000,-74.4563154536336
7168000,-74.4294453647746
7176000,-74.6310492948273
7184000,-74.7537418788499
7192000,-75.6485003115917
7200000,-74.4890436290225
7208000,-74.6570361276422
7216000,-73.8572293341708
7224000,-72.8949064531398
7232000,-74.8067667017549
7240000,-74.9062075831536
7248000,-73.7351880467973
7256000,-74.3749491170164
7264000,-73.7143569211253
7272000,-74.0856353508667
7280000,-73.9004970999637
7288000,-74.8319749970615
7296000,-74.2002845755388
7304000,-73.7174871893173
7312000,-75.7592735154756
7320000,-74.4375390679115
7328000,-74.7701731375554
7336000,-74.3215498523671
7344000,-74.1268621527231
7352000,-72.534731869561
7360000,-74.0188343720287
7368000,-74.1407731942518
7376000,-74.6775626454051
7384000,-74.5472694067408
7392000,-73.250736592109
7400000,-74.3475939652811
7408000,-74.5053317469752
7416000,-74.0578544547164
7424000,-74.2112284936696
7432000,-73.3579454680553
7440000,-73.6187274223246
7448000,-73.3724435111063
7456000,-74.1493234501856
7464000,-73.4270121533756
7472000,-74.2832717501955
7480000,-74.3584773052652
7488000,-74.6576716109626
7496000,-74.0519586789909
7504000,-74.76332012534
7512000,-74.4065257859298
7520000,-73.6663818027683
7528000,-74.0272187679517
7536000,-74.1638537424496
7544000,-73.5756244616741
7552000,-73.9344428826728
7560000,-74.8572410007509
7568000,-74.7921424410539
7576000,-72.9223148560145
7584000,-74.0118841332721
7592000,-76.453894722988
7600000,-74.7270445900485
7608000,-73.4605903459136
7616000,-74.0676533753547
7624000,-73.570629690939
7632000,-72.7572172815445
7640000,-73.4885559134661
7648000,-75.0964093265134
7656000,-73.7967429661451
7664000,-74.9310520621392
7672000,-73.7065540725904
7680000,-73.8076307595054
7688000,-73.943852705401
7696000,-74.2075119479339
7704000,-75.0250431713032
7712000,-74.9365419682528
7720000,-75.2849172762928
7728000,-73.8398179667394
7736000,-75.2099053820847
7744000,-73.7771934503558
7752000,-74.8705039753405
7760000,-75.1572993466559
7768000,-75.7180528593639
7776000,-74.5204685021328
7784000,-72.739566308126
7792000,-73.4042760493419
7800000,-73.9217723032273
7808000,-74.0783568278992
7816000,-73.9454008427911
7824000,-75.7544320753635
7832000,-74.7488041309186
7840000,-74.389535161667
7848000,-74.1504707912514
7856000,-75.9064481471451
7864000,-74.5273962685541
7872000,-75.5215412587244
7880000,-75.0247859296541
7888000,-73.5059167537779
7896000,-73.6381853897709
7904000,-73.0290223004084
7912000,-73.707490590085
7920000,-74.2195544119921
7928000,-74.2512947687973
7936000,-74.9532881812613
7944000,-74.7639941527085
7952000,-74.3908509622952
7960000,-73.7651110331935
7968000,-74.3077624221491
7976000,-74.2798156439149
7984000,-75.7200536465841
7992000,-75.661262012756
8000000,-75.5247051975956
8008000,-73.5393909147233
8016000,-72.8588253029452
8024000,-74.9915149937703
8032000,-74.8444542700592
8040000,-74.9581142948688
8048000,-75.1121875569492
8056000,-74.7643068472282
8064000,-74.5119111616091
8072000,-73.1798846188661
8080000,-74.0881509803651
8088000,-74.3102615308181
8096000,-73.906333181069
8104000,-74.2795025112005
8112000,-73.9236416637952
8120000,-73.7187785409387
8128000,-73.8612692326929
8136000,-74.4082907882764
8144000,-74.9815782218975
8152000,-74.9932570075911
8160000,-75.4487152332346
8168000,-74.937119144781
8176000,-73.5705937303774
8184000,-74.3134153827954
8192000,-73.5245964253763
8200000,-75.2269117313443
8208000,-75.0967928773846
8216000,-74.5090814883787
8224000,-75.0610945412074
8232000,-74.1566219688208
8240000,-73.2899741220796
8248000,-73.7935331971011
8256000,-76.1760754811731
8264000,-75.4648569439476
8272000,-75.3466218099644
8280000,-75.0457642939647
8288000,-74.028570172488
8296000,-74.9924480939672
8304000,-75.2646167338841
8312000,-76.0856322558954
8320000,-75.572578255118
8328000,-74.9150270415871
8336000,-72.7464151857924
8344000,-74.0073581656881
8352000,-74.8031682221457
8360000,-75.2071054334135
8368000,-74.8217923561618
8376000,-74.1065275212675
8384000,-73.7727734526963
8392000,-73.7319469688459
8400000,-74.6467401129253
8408000,-75.0782193140754
8416000,-74.2216101975739
8424000,-73.5568180750022
8432000,-74.450117892769
8440000,-74.2382833192376
8448000,-74.6896541119507
8456000,-74.4498379886758
8464000,-74.7845324117293
8472000,-74.963360698489
8480000,-74.1713027691705
8488000,-74.2043668511581
8496000,-74.057901863159
8504000,-74.1954039651744
8512000,-74.684472629427
8520000,-75.119261749044
8528000,-74.656470434199
8536000,-73.9455694834339
8544000,-74.5036912503532
8552000,-75.496277526536
8560000,-74.1334937342286
8568000,-72.9842612245313
8576000,-73.7361937163588
8584000,-74.0678964729058
8592000,-74.0694131651651
8600000,-75.6640973281086
8608000,-74.6409440874896
8616000,-75.1773742318892
8624000,-73.5496468276143
8632000,-73.1794347299116
8640000,-72.9943806248304
8648000,-73.4927271665585
8656000,-73.7967522549671
8664000,-73.7629263684592
8672000,-73.86971510863
8680000,-74.0270351121627
8688000,-73.0161617134026
8696000,-73.5302543534656
8704000,-74.1349578093945
8712000,-73.821520789019
8720000,-75.2816542578038
8728000,-73.7308114533917
8736000,-72.250279438903
8744000,-74.4950949100091
8752000,-74.3486332221403
8760000,-74.1636282751042
8768000,-74.4667679303208
8776000,-75.1006924181862
8784000,-75.245501158905
8792000,-75.2726387102357
8800000,-74.0414631265155
8808000,-72.9733871934766
8816000,-73.4479768253471
8824000,-74.3045948901556
8832000,-74.8427715024609
8840000,-75.9673862023194
8848000,-74.174293097952
8856000,-73.1158861736889
8864000,-75.2194407302805
8872000,-75.10366054739
8880000,-74.0748682698185
8888000,-74.4112036843295
8896000,-74.6748563755938
8904000,-74.2725474336357
8912000,-73.5762883351123
8920000,-74.8917641167632
8928000,-74.3088200360033
8936000,-74.0037832960894
8944000,-73.4916657954387
8952000,-74.1489501613475
8960000,-74.5902073288482
8968000,-74.8151947660459
8976000,-74.3605908739122
8984000,-75.0079247855804
8992000,-74.828416964549
9000000,-75.4601191584795
9008000,-75.8660871076123
9016000,-74.8431367071732
9024000,-73.9366704267914
9032000,-74.2589127392888
9040000,-73.4493943079414
9048000,-73.3572732025886
9056000,-74.8366648328359
9064000,-74.6722352556474
9072000,-74.246153362947
9080000,-74.65761449446
9088000,-75.1575000650463
9096000,-76.024571239602
9104000,-74.2921737386036
9112000,-72.9020047281465
9120000,-73.0111928291232
9128000,-72.9938628981635
9136000,-74.1735033943025
9144000,-72.9439786219102
9152000,-73.4427597664448
9160000,-72.6734244952754
9168000,-73.5336062639497
9176000,-73.8865552367345
9184000,-74.79699065753
9192000,-75.3894807410993
9200000,-74.331371562124
9208000,-74.2151855181375
9216000,-74.5775353606961
9224000,-73.5881585787456
9232000,-73.4796524691115
9240000,-73.8412652677575
9248000,-74.5020962291708
9256000,-73.2389437699727
9264000,-72.9826343116008
9272000,-73.8360102264802
9280000,-75.8018530396714
9288000,-74.9269152117573
9296000,-74.4995921371566
9304000,-75.1958467196994
9312000,-74.2747383672724
9320000,-73.907952640886
9328000,-72.6763391222619
9336000,-72.2555346245998
9344000,-72.0193270585211
9352000,-72.7843523840601
9360000,-73.5446539502531
9368000,-72.6643162464627
9376000,-72.5119215752609
9384000,-75.1664686379744
9392000,-74.9599321854974
9400000,-76.1405617859929
9408000,-75.2593747913475
9416000,-73.801404321905
9424000,-71.9855232124094
9432000,-71.7783657377383
9440000,-72.7221639739734
9448000,-71.3079825287835
9456000,-70.6761556327781
9464000,-71.628433233122
9472000,-73.5149062987598
9480000,-74.0825338886424
9488000,-74.978363436741
9496000,-75.2472849608508
9504000,-74.981597100956
9512000,-74.1462693442377
9520000,-73.0448632852237
9528000,-71.5147696317247
9536000,-71.7749960447543
9544000,-70.5113646882503
9552000,-70.8387400306346
9560000,-70.3061157139356
9568000,-70.2073082491016
9576000,-72.4514168103896
9584000,-73.4968344669551
9592000,-73.623385538909
9600000,-74.9179205446234
9608000,-74.3190709262965
9616000,-73.5916030817419
9624000,-73.3084058444309
9632000,-70.2453652540746
9640000,-69.1343430294201
9648000,-69.2260208755859
9656000,-69.1295959734434
9664000,-69.172444728822
9672000,-70.1665098688153
9680000,-71.6275048953695
9688000,-74.2216452446446
9696000,-75.4803730045031
9704000,-76.8654994344468
9712000,-72.9006851038552
9720000,-71.619901922604
9728000,-69.0319733313253
9736000,-67.9651879576464
9744000,-67.0008594822751
9752000,-67.2238384746912
9760000,-67.9917839861276
9768000,-68.2597399929108
9776000,-69.1766744739199
9784000,-70.4568171306312
9792000,-73.2503265559267
9800000,-75.4535323910193
9808000,-73.7449256397654
9816000,-69.6504511932236
9824000,-67.269499960456
9832000,-65.6527973206558
9840000,-64.85424013131
9848000,-63.8755615334449
9856000,-63.7979016090265
9864000,-63.4180654757201
9872000,-63.9434203194057
9880000,-65.7889067401121
9888000,-68.9906092405994
9896000,-71.6085366906758
9904000,-70.3477370029798
9912000,-65.5027521479092
9920000,-62.3418979717907
9928000,-59.4504168732514
9936000,-56.9242495585897
9944000,-55.2556094428189
9952000,-53.6008501994538
9960000,-52.9895250105146
9968000,-51.8737718723224
9976000,-51.8881801989153
9984000,-48.0520045001892
9992000,-36.4489070883943
10000000,-30.8974966084916
10008000,-34.898701503306
10016000,-46.6697779383493
10024000,-51.2803330299169
10032000,-51.9302266778773
10040000,-52.8366248883566
10048000,-53.7355113132315
10056000,-54.7682010754216
10064000,-56.4538951302033
10072000,-59.0434751079021
10080000,-62.1417671838844
10088000,-65.6874655610451
10096000,-70.3698317371059
10104000,-71.8711992105267
10112000,-68.8400196494284
10120000,-66.3037716617595
10128000,-65.3628903486845
10136000,-63.8279035992946
10144000,-63.8341711176207
10152000,-63.1503976996963
10160000,-64.2563718479995
10168000,-65.7960962711476
10176000,-67.2106266054001
10184000,-69.6464548134251
10192000,-71.6724145645076
10200000,-74.2555011688136
10208000,-73.7517757346593
10216000,-71.7973872913498
10224000,-70.7744015275304
10232000,-68.9433356801787
10240000,-67.6389138225742
10248000,-67.2293107498203
10256000,-67.6903651201401
10264000,-69.0771883727045
10272000,-69.8552076820183
10280000,-71.523094762457
10288000,-73.6341132850167
10296000,-74.7411067468174
10304000,-75.9051416473327
10312000,-74.0262730316536
10320000,-72.2218703734868
10328000,-70.7384646006258
10336000,-69.5207354454375
10344000,-69.3370852908399
10352000,-69.4950752733084
10360000,-69.8202458348375
10368000,-70.4766207976449
10376000,-71.4684479767279
10384000,-73.2814039832075
10392000,-73.2392392435025
10400000,-73.5613703633611
10408000,-74.4859172908744
10416000,-73.4543845114812
10424000,-73.1319040178294
10432000,-72.3025246894955
10440000,-71.8596410532187
10448000,-72.0184194003206
10456000,-71.4833381731548
10464000,-72.3689004879657
10472000,-73.6582575682918
10480000,-73.839951924001
10488000,-74.0627761381411
10496000,-73.9120481477783
10504000,-74.9716460264449
10512000,-75.1953991627392
10520000,-74.1143442318107
10528000,-73.4297255964722
10536000,-72.4631070834368
10544000,-71.7689048536943
10552000,-70.7027235672346
10560000,-71.7553862482484
10568000,-73.0345228315646
10576000,-74.1301037364137
10584000,-74.17147156124
10592000,-74.1186019616251
10600000,-75.3138146508614
10608000,-76.6947206158682
10616000,-75.564037135165
10624000,-74.649011721027
10632000,-72.7946339069987
10640000,-72.2456171557529
10648000,-71.968105013344
10656000,-73.0579432548308
10664000,-74.7237363142376
10672000,-73.740064007942
10680000,-75.3516866273995
10688000,-75.0360248441593
10696000,-74.0322836675696
10704000,-74.1702302383506
10712000,-75.323757742207
10720000,-75.1184966561779
10728000,-75.0363499018657
10736000,-74.9090363256746
10744000,-73.7108626594914
10752000,-73.7130484638447
10760000,-72.7666700765714
10768000,-73.1161449463918
10776000,-72.9387996726327
10784000,-74.4699196021006
10792000,-75.3312341108259
10800000,-76.0587474695686
10808000,-75.9133441520487
10816000,-75.4922209366263
10824000,-74.3667772901259
10832000,-73.8356851965549
10840000,-74.1598942560595
10848000,-74.1264874549882
10856000,-73.3910058448495
10864000,-74.1941825240955
10872000,-73.4033944354537
10880000,-72.9537029630264
10888000,-73.8851107962426
10896000,-74.0043996080111
10904000,-74.6934652702286
10912000,-75.6082902049681
10920000,-75.8325951413638
10928000,-75.5283630788143
10936000,-75.1902320338128
10944000,-74.4704131920344
10952000,-74.4890288838551
10960000,-74.5584576238948
10968000,-74.0078339402362
10976000,-74.2715988202738
10984000,-74.7041531500401
10992000,-74.7667408260437
11000000,-75.1635014631009
11008000,-74.6505878634029
11016000,-75.9004397013489
11024000,-74.9363462466927
11032000,-73.930005651108
11040000,-75.0141611183331
11048000,-75.6892120058482
11056000,-76.7876206134561
11064000,-75.4142062862346
11072000,-75.2231051565878
11080000,-75.2791358758753
11088000,-74.9309199860317
11096000,-75.5309070029663
11104000,-75.4332530847147
11112000,-75.3750007092894
11120000,-74.731138596624
11128000,-74.4434150239517
11136000,-73.3365597151797
11144000,-74.0791294259613
11152000,-74.7520116071008
11160000,-75.3701831003388
11168000,-76.3570027395923
11176000,-75.6821253978957
11184000,-74.7501597634645
11192000,-74.4748595223631
11200000,-76.8053688302451
11208000,-77.2658873189743
11216000,-76.2741590540058
11224000,-75.4705292263109
11232000,-74.3525903402147
11240000,-75.1840634374125
11248000,-77.2436677063115
11256000,-75.7937033536114
11264000,-75.7645336531799
11272000,-75.3936809727161
11280000,-75.5177940169862
11288000,-75.0892506917587
11296000,-74.9091544312767
11304000,-76.2284417071701
11312000,-76.4286799949669
11320000,-75.3147655756043
11328000,-74.9095283831689
11336000,-75.5345037404497
11344000,-74.4843354296942
11352000,-74.7545524177245
11360000,-73.5423011111839
11368000,-74.0018672080006
11376000,-73.801186164353
11384000,-75.0082217439909
11392000,-75.3770275086575
11400000,-76.3979656682047
11408000,-76.865354316519
11416000,-77.1139502003078
11424000,-75.1144001281742
11432000,-75.1026753944686
11440000,-74.1952624847545
11448000,-74.5778496590736
11456000,-75.5265111221861
11464000,-74.8797004634239
11472000,-74.8754585499457
11480000,-75.5231509910127
11488000,-75.3018185181599
11496000,-74.8406425935177
11504000,-74.3457629971194
11512000,-76.164880266268
11520000,-75.4895302633431
11528000,-75.8233381444834
11536000,-73.9504111955674
11544000,-75.1462467249686
11552000,-76.204604745223
11560000,-76.8322053284966
11568000,-75.5000695324865
11576000,-75.0778658190028
11584000,-74.6825694702362
11592000,-75.0998403860643
11600000,-74.29381842508
11608000,-74.5121221158918
11616000,-74.7463462815996
11624000,-75.687656333022
11632000,-74.5945032103067
11640000,-74.5239287122254
11648000,-75.7903179820359
11656000,-74.3269126168711
11664000,-73.686057497801
11672000,-74.0823786926163
11680000,-75.5891931816246
11688000,-76.4240822066306
11696000,-75.3078373410718
11704000,-74.5202227440556
11712000,-75.1550991683783
11720000,-76.0276881178072
11728000,-74.1230895810695
11736000,-74.3500893226017
11744000,-74.7238325307418
11752000,-76.4129106868422
11760000,-75.2398968542781
11768000,-74.8439034522742
11776000,-76.2788395446525
11784000,-76.8828861262181
11792000,-78.2259260830537
11800000,-75.0131643564067
11808000,-73.6874632243101
11816000,-74.8683974147827
11824000,-76.4604224089239
11832000,-75.465123626639
11840000,-75.8903959281122
11848000,-76.4015551448513
11856000,-74.9776096343572
11864000,-74.5483193017847
11872000,-74.4162956829687
11880000,-74.7849832015307
11888000,-75.2441507780238
11896000,-75.3058357242582
11904000,-75.1745359677933
11912000,-75.5030695048888
11920000,-75.8723395268765
11928000,-75.455341338838
11936000,-75.5197520709261
11944000,-75.6973640928323
11952000,-75.5757832337273
11960000,-74.6746753498924
11968000,-76.2524969215772
11976000,-76.5156587531454
11984000,-75.422560574176
11992000,-76.5364929326274
12000000,-76.4015593730693
12008000,-75.5826827324418
12016000,-75.837571152363
12024000,-75.977840559163
12032000,-75.2252524622885
12040000,-75.291190364961
12048000,-76.4851354432444
12056000,-75.5337582930599
12064000,-76.0339621096577
12072000,-76.9651349597766
12080000,-76.0126977261035
12088000,-76.256804149819
12096000,-75.5283923512154
12104000,-75.1778798300165
12112000,-75.1651778774311
12120000,-75.1134555964042
12128000,-75.2207214791789
12136000,-74.6592291375292
12144000,-74.5500533145977
12152000,-75.1418115385881
12160000,-74.3371946804095
12168000,-75.4702708704706
12176000,-76.6803787006487
12184000,-75.0959696160495
12192000,-75.7041414690321
12200000,-74.5502822088381
12208000,-74.8908141061284
12216000,-74.593397304835
12224000,-75.3313727260055
12232000,-75.2304211272171
12240000,-75.3391326399618
12248000,-76.0946539704408
12256000,-77.5960232871232
12264000,-76.778009085657
12272000,-75.9117426341723
12280000,-75.6025570626282
12288000,-75.6877047788959
12296000,-74.8541532169346
12304000,-74.9004287592885
12312000,-75.7525600261953
12320000,-75.572522071847
12328000,-75.0284501626557
12336000,-74.7306523720891
12344000,-76.7989584126062
12352000,-75.0547202785248
12360000,-74.9225844518419
12368000,-75.8728616285992
12376000,-76.216099208349
12384000,-75.7399553399271
12392000,-76.3703504231301
12400000,-76.1049628216409
12408000,-74.4854967193138
12416000,-74.508245320289
12424000,-75.1839629864024
12432000,-75.9085833211257
12440000,-75.0149965844767
12448000,-74.8426256443647
12456000,-74.6231146520626
12464000,-75.9618681690464
12472000,-76.0274311734178
12480000,-75.925423360868
12488000,-75.904964543391
12496000,-75.7797875412761
12504000,-76.2257296978765
12512000,-76.5325319903303
12520000,-76.2018314789267
12528000,-76.8794488424529
12536000,-75.247382631409
12544000,-74.7394157229916
12552000,-74.9811592320001
12560000,-75.0306940206006
12568000,-75.7919438042392
12576000,-76.9129870212248
12584000,-74.127845595853
12592000,-74.8292444969158
12600000,-75.1938556054639
12608000,-75.5837187339879
12616000,-75.9958582150583
12624000,-76.1027276697406
12632000,-77.6997576962041
12640000,-76.8169293713893
12648000,-76.5739308882291
12656000,-76.1711728292948
12664000,-75.7148807620132
12672000,-76.49304318082
12680000,-75.3168369358651
12688000,-75.0990981187355
12696000,-74.9723079879747
12704000,-75.6642625010988
12712000,-76.373383539555
12720000,-76.0695707492274
12728000,-76.6617328053487
12736000,-75.5011303764473
12744000,-76.0010157374526
12752000,-75.2119685736742
12760000,-75.4446325286705
12768000,-75.595962824427
12776000,-75.4487302400204
12784000,-75.2888766970315
12792000,-75.1779970393066
12800000,-76.2337816021208
12808000,-75.5580896076691
12816000,-75.0624560498946
12824000,-75.7615521425802
12832000,-75.6758174970326
12840000,-75.9542832864274
12848000,-75.9856334513316
12856000,-75.2884284952391
12864000,-76.785247307277
12872000,-76.8219133785583
12880000,-75.7827411071437
12888000,-75.4101630437164
12896000,-75.90134322945
12904000,-75.5917723769208
12912000,-75.9699317728963
12920000,-76.2872973478801
12928000,-75.4859769042634
12936000,-76.187221273672
12944000,-75.8752262778155
12952000,-76.9094315431282
12960000,-75.2747488570943
12968000,-75.9994739595709
12976000,-75.9031607897585
12984000,-76.4383089992491
12992000,-75.8754842180907
13000000,-75.9143748917989
13008000,-75.3817685579534
13016000,-75.5292975386738
13024000,-76.9440937987682
13032000,-77.010179298547
13040000,-75.7984203120675
13048000,-76.1294934832465
13056000,-75.5812891247054
13064000,-76.2027275093559
13072000,-75.125657569086
13080000,-75.5335463923799
13088000,-75.2613892982235
13096000,-75.7745152633341
13104000,-76.1305309173927
13112000,-76.3080476167604
13120000,-75.6567565950048
13128000,-75.5018424774786
13136000,-76.3725887775389
13144000,-75.0192218787251
13152000,-74.7833964241308
13160000,-75.6935686661998
13168000,-75.5147470406468
13176000,-74.6354671675596
13184000,-75.1890543133018
13192000,-74.5574982297452
13200000,-74.8224422210972
13208000,-74.957486044947
13216000,-76.7001710912041
13224000,-75.94040307764
13232000,-74.7953776023337
13240000,-75.0807497630611
13248000,-75.6254111452831
13256000,-76.254609255229
13264000,-74.8158839361318
13272000,-74.2964133375082
13280000,-75.2553693032133
13288000,-76.0122428073606
13296000,-76.5194140588656
13304000,-75.2295268100428
13312000,-75.5671687115378
13320000,-76.1550677084987
13328000,-75.3650461566885
13336000,-75.1889095173773
13344000,-74.9967419536659
13352000,-75.1627885927559
13360000,-74.8962322208327
13368000,-75.1522800194745
13376000,-75.1645077528917
13384000,-77.0101610540245
13392000,-76.8971698840076
13400000,-76.0885133513594
13408000,-74.729829418696
13416000,-74.7528822611191
13424000,-74.7521737488209
13432000,-75.382869465677
13440000,-75.773491355811
13448000,-74.4820425254946
13456000,-74.7147497265248
13464000,-76.3088227249282
13472000,-76.4259763667976
13480000,-76.9416862073288
13488000,-75.5275319465152
13496000,-76.1464314976067
13504000,-77.0349429913342
13512000,-75.8906429013177
13520000,-75.1034131969767
13528000,-76.3875357545765
13536000,-76.2566070607454
13544000,-76.144834064882
13552000,-75.0642136996306
13560000,-74.5744113505888
13568000,-75.8418632824732
13576000,-76.1019981442066
13584000,-75.7603656241524
13592000,-75.0856265040397
13600000,-76.1296958075114
13608000,-75.7615326949832
13616000,-76.2726241017887
13624000,-75.3618693294061
13632000,-76.0240088288277
13640000,-75.388491448014
13648000,-76.2845078354352
13656000,-75.3611610079642
13664000,-76.2685459962554
13672000,-74.8868099681404
13680000,-74.2291096929413
13688000,-74.8060274116506
13696000,-76.0018114057792
13704000,-75.5762989939795
13712000,-74.8313905080855
13720000,-75.9047125649999
13728000,-76.6322634669681
13736000,-76.2709584910326
13744000,-75.2293100843368
13752000,-75.6123550175302
13760000,-76.6272289247041
13768000,-76.5124684665851
13776000,-75.4649663896432
13784000,-75.3498295410487
13792000,-75.799154229463
13800000,-76.3094538691531
13808000,-76.7199824200608
13816000,-77.8211387880062
13824000,-76.3088986724364
13832000,-76.5308910642695
13840000,-76.0700863829968
13848000,-75.5710758642648
13856000,-76.1550806771456
13864000,-75.5862075269557
13872000,-75.9275221996931
13880000,-75.4482720369516
13888000,-75.1850703067426
13896000,-76.0898718305137
13904000,-76.0140951114506
13912000,-75.6811880353514
13920000,-75.2222011996047
13928000,-76.1573790833364
13936000,-76.7619155874384
13944000,-76.3983078981039
13952000,-78.4658806935228
13960000,-76.818404375225
13968000,-76.3508313201912
13976000,-77.3998153835754
13984000,-76.3598496413821
13992000,-75.3408180134757
14000000,-75.363133033005
