Trace
Swept SA
A.12.13,N9010A
513 B25 DP2 RTL ,01
Segment,0
Number of Points,1001
Sweep Time,0.044
Start Frequency,6000000
Stop Frequency,14000000
Average Count,0
Average Type,LogPower(Video)
RBW,9100
RBW Filter,Gaussian
RBW Filter BW,3dB
VBW,9100
Sweep Type,Swept
X Axis Scale,Lin
PreAmp State,Off
PreAmp Band,Low
Trigger Source,Ext1
Trigger Level,1
Trigger Slope,Positive
Trigger Delay,0
Phase Noise Optimization,Narrow
Swept If Gain,Low
FFT If Gain,Autorange
RF Coupling,AC
FFT Width,411900
Ext Ref,10000000
Input,RF
RF Calibrator,Off
Attenuation,10
Ref Level Offset,0
External Gain,0
Trace Type,Average
Detector,Sample
Trace Math,Off
Trace Math Oper1,Trace5
Trace Math Oper2,Trace6
Trace Math Offset,0
Trace Name,Trace1
X Axis Units,Hz
Y Axis Units,dBm
DATA
6000000,-58.7594204739673
6008000,-63.1333415221187
6016000,-56.5557097577696
6024000,-59.6115863656612
6032000,-61.6625126002286
6040000,-63.4913927299913
6048000,-63.8643002774953
6056000,-59.7934165470045
6064000,-62.2035629480602
6072000,-64.3403050128634
6080000,-67.3974591897669
6088000,-61.3764509171793
6096000,-58.4799462243581
6104000,-58.2845047586427
6112000,-56.2158376460616
6120000,-61.5522472379501
6128000,-61.2902827552592
6136000,-64.4812807335938
6144000,-65.7167925852531
6152000,-64.0625087788227
6160000,-62.5560821822264
6168000,-59.6441903172335
6176000,-61.3242887571068
6184000,-67.4436883375948
6192000,-69.8617871128564
6200000,-61.311549813956
6208000,-60.4593894421683
6216000,-64.5916161924594
6224000,-66.7205020373167
6232000,-65.23821192279
6240000,-62.860092246659
6248000,-64.4650258718686
6256000,-65.1101887519666
6264000,-62.4709314133636
6272000,-63.0425138897056
6280000,-70.0523421920796
6288000,-66.6672046203531
6296000,-68.937230883998
6304000,-65.2350674141177
6312000,-65.0436775689647
6320000,-63.1714945184553
6328000,-63.5035314120625
6336000,-63.5286814579624
6344000,-64.6551734479084
6352000,-63.1908154380671
6360000,-60.8984266444896
6368000,-65.7543731590309
6376000,-63.2178833787036
6384000,-60.0519698471861
6392000,-67.1227483671027
6400000,-71.2398283228519
6408000,-68.991224474592
6416000,-65.107002416618
6424000,-60.1007728433637
6432000,-59.5385857026445
6440000,-58.7595807254056
6448000,-56.5248123967697
6456000,-58.354910613891
6464000,-59.5055531631116
6472000,-63.1627761981133
6480000,-63.1946286593061
6488000,-66.4391480022681
6496000,-62.3262480906829
6504000,-59.3206500931858
6512000,-64.2878415522493
6520000,-59.7773607188664
6528000,-58.1069003287364
6536000,-57.3184676048596
6544000,-61.6624608866846
6552000,-67.5187715014083
6560000,-63.2501868219204
6568000,-56.7893667799691
6576000,-59.7301333902248
6584000,-60.44901883416
6592000,-58.5634449354947
6600000,-57.743420214129
6608000,-57.0584922327258
6616000,-63.0478848997811
6624000,-67.4284944336068
6632000,-63.3856024113133
6640000,-63.7632925623365
6648000,-64.5459891103622
6656000,-60.0490111667058
6664000,-64.2781855925096
6672000,-65.3653741648736
6680000,-64.1368771888219
6688000,-64.2847590451991
6696000,-63.2574687818984
6704000,-62.3625017743186
6712000,-63.375429744689
6720000,-59.0331501475164
6728000,-59.726259526771
6736000,-63.4539268645887
6744000,-65.5339127179383
6752000,-60.9375463629405
6760000,-65.0928922482526
6768000,-66.5676472471715
6776000,-66.8052560973492
6784000,-62.965709412002
6792000,-66.5072559226835
6800000,-67.4496955615228
6808000,-69.6427189617619
6816000,-66.8696109918698
6824000,-62.2335023237081
6832000,-62.9987739410934
6840000,-64.7434718586569
6848000,-66.1412061208698
6856000,-62.7252950057352
6864000,-60.766082910694
6872000,-62.3641121509307
6880000,-63.3420356859402
6888000,-66.4073464346776
6896000,-61.2829734690741
6904000,-62.5414911909439
6912000,-67.4742452385836
6920000,-66.6301758932403
6928000,-64.5281117542365
6936000,-66.8556203936235
6944000,-56.9653628881976
6952000,-55.9287095505466
6960000,-58.1188808987673
6968000,-62.9843028699556
6976000,-67.7187213591266
6984000,-65.0472270702098
6992000,-65.309639411238
7000000,-64.4185216028908
7008000,-64.5656123257531
7016000,-64.4999078003615
7024000,-62.8472990179561
7032000,-65.0250588575991
7040000,-62.1737272153704
7048000,-61.0386153816025
7056000,-65.5864127376044
7064000,-63.1432396245188
7072000,-63.5662947462185
7080000,-58.4269822795898
7088000,-58.1088645455053
7096000,-60.5297761135096
7104000,-60.8096401984197
7112000,-64.347904927145
7120000,-64.9100478608377
7128000,-64.4549816229551
7136000,-68.2246996970391
7144000,-66.3702299682427
7152000,-68.0394928442193
7160000,-66.581638983611
7168000,-64.0431548360935
7176000,-62.676979968093
7184000,-62.1636195243034
7192000,-63.9006126297932
7200000,-61.3409818786969
7208000,-59.5304863542027
7216000,-61.7772386121279
7224000,-62.8510913521628
7232000,-66.8192801238617
7240000,-74.9951129028371
7248000,-70.2675149102436
7256000,-67.1173273333148
7264000,-65.0760956124439
7272000,-61.8533594899049
7280000,-63.5524965152798
7288000,-65.6458843307597
7296000,-67.17940134973
7304000,-67.7041813986344
7312000,-70.1931890914549
7320000,-62.6779280509042
7328000,-61.978012486337
7336000,-66.7127229827817
7344000,-60.1953386167835
7352000,-62.4238512877162
7360000,-71.0152430620601
7368000,-73.2339599938731
7376000,-65.0509720813952
7384000,-62.3451288195062
7392000,-62.8690400252008
7400000,-67.4276381312537
7408000,-70.6615416254811
7416000,-67.4034642228725
7424000,-67.3825625596584
7432000,-64.067711389322
7440000,-60.44856550871
7448000,-61.2264589115664
7456000,-63.5005462949085
7464000,-65.3138784080547
7472000,-65.4572966540833
7480000,-61.5202192675229
7488000,-58.0878610217285
7496000,-57.5582818686165
7504000,-59.8359334766808
7512000,-65.5710420553444
7520000,-67.3794090181802
7528000,-63.1887288489575
7536000,-59.0798322592608
7544000,-58.9476995112102
7552000,-58.7251073887642
7560000,-62.533597891192
7568000,-66.124618552015
7576000,-64.3381661908957
7584000,-62.3587467360687
7592000,-65.2670628621092
7600000,-63.9839196880645
7608000,-61.8384979748649
7616000,-62.1506324182614
7624000,-64.4016780553076
7632000,-61.4590720793485
7640000,-62.9873178148205
7648000,-65.0083436338847
7656000,-68.545287663454
7664000,-67.4230122492018
7672000,-64.3995942199635
7680000,-61.5956698331936
7688000,-59.0503648082707
7696000,-62.7854815354344
7704000,-65.0180776253319
7712000,-65.5669942330339
7720000,-64.8543653697036
7728000,-66.3592454040928
7736000,-63.8503575011448
7744000,-59.9369245613144
7752000,-66.9336382307044
7760000,-59.7881580366936
7768000,-58.3498399106301
7776000,-63.1530140848537
7784000,-64.8632874556196
7792000,-63.0138319294614
7800000,-60.617735924351
7808000,-60.8905059940874
7816000,-66.3454413233451
7824000,-65.8588547190186
7832000,-67.3896247428226
7840000,-67.010342863389
7848000,-61.2519473589241
7856000,-60.8919272742472
7864000,-60.3339525958432
7872000,-61.6714665474223
7880000,-64.3168371724879
7888000,-64.7573775896981
7896000,-62.0630237417115
7904000,-65.3282394346758
7912000,-73.0946365786092
7920000,-69.5104757413077
7928000,-66.2663491615413
7936000,-69.0954616879286
7944000,-67.5831447945427
7952000,-65.3527795022552
7960000,-64.7814827672544
7968000,-67.8314579472661
7976000,-66.9453419454685
7984000,-65.2128901741866
7992000,-66.431082520372
8000000,-61.6450514032309
8008000,-61.2804038847472
8016000,-66.2532554575918
8024000,-64.1484705594746
8032000,-67.7461854192243
8040000,-67.2381136725727
8048000,-63.5997984065641
8056000,-61.2305732204439
8064000,-65.272052028986
8072000,-67.4230649927077
8080000,-66.8981687620718
8088000,-71.9752053775022
8096000,-65.9468448080905
8104000,-66.0601325691971
8112000,-63.0300127562759
8120000,-60.4696031441447
8128000,-66.672717881791
8136000,-65.034643676899
8144000,-63.9107226544689
8152000,-66.5531610484813
8160000,-65.8992830784454
8168000,-63.8505927630181
8176000,-62.9300743976084
8184000,-61.3328275108897
8192000,-64.5613974034343
8200000,-66.5123861624336
8208000,-72.5307224942146
8216000,-62.5242336812186
8224000,-57.8951054661647
8232000,-61.6959898027194
8240000,-65.0539570489011
8248000,-66.6192541305647
8256000,-66.3639829705289
8264000,-61.5116799346219
8272000,-59.898425179445
8280000,-61.7921522850945
8288000,-62.5203896398725
8296000,-64.3154643027163
8304000,-64.9302436967463
8312000,-70.6918144511005
8320000,-68.3514429076624
8328000,-68.7226049906894
8336000,-65.3673795284719
8344000,-65.0506725466368
8352000,-66.4787362387312
8360000,-65.2627278378927
8368000,-64.3884655049086
8376000,-61.1521586963869
8384000,-64.6295115695949
8392000,-64.3308923097321
8400000,-65.8038114062757
8408000,-61.8838350719162
8416000,-62.7398064788517
8424000,-63.3199831251551
8432000,-66.1092521268122
8440000,-65.2459227907648
8448000,-60.2982304818759
8456000,-67.3611353356163
8464000,-68.3337187418751
8472000,-60.7644407698552
8480000,-61.4702197506777
8488000,-67.5384930817225
8496000,-58.8559793787294
8504000,-55.185151954959
8512000,-62.2923093272688
8520000,-56.641665427222
8528000,-57.8903532150491
8536000,-59.6524554714916
8544000,-61.9531001107194
8552000,-61.1208442121269
8560000,-63.2674502870169
8568000,-67.0398501649255
8576000,-64.86483252735
8584000,-62.6714723239269
8592000,-62.1981451921964
8600000,-59.2263116988634
8608000,-62.8032750694877
8616000,-64.2672238747846
8624000,-66.3835498979539
8632000,-64.8261145284422
8640000,-69.8898264509379
8648000,-66.4205917240451
8656000,-69.1670044663787
8664000,-70.7507158175507
8672000,-72.8959945245908
8680000,-64.9096282631406
8688000,-62.3595496733292
8696000,-66.5557230824225
8704000,-63.1438424245727
8712000,-66.3706494836157
8720000,-65.0568362900954
8728000,-64.0364095538024
8736000,-69.2759610903304
8744000,-66.8445972237061
8752000,-62.6841596713018
8760000,-63.4680844023214
8768000,-66.7119774832628
8776000,-64.7717717115407
8784000,-65.2090764655455
8792000,-69.1366065759579
8800000,-67.9940811987339
8808000,-69.5556181530003
8816000,-69.3452107346506
8824000,-64.7730079588848
8832000,-63.6606111724261
8840000,-65.738818784124
8848000,-66.2849885170205
8856000,-64.8551884017397
8864000,-66.0142422730301
8872000,-60.2989172305243
8880000,-61.4557590987493
8888000,-70.0380225200868
8896000,-65.7826748916397
8904000,-68.6150249703472
8912000,-69.8332847691936
8920000,-69.7861469011331
8928000,-69.6350292270568
8936000,-65.3843802827728
8944000,-64.8514866783318
8952000,-58.3222477956963
8960000,-61.0612059772319
8968000,-70.7438414503844
8976000,-70.0703208736804
8984000,-70.5130219588342
8992000,-61.5551325042067
9000000,-58.1647829385583
9008000,-57.3101303405503
9016000,-63.0909660204384
9024000,-65.6508494112456
9032000,-65.3848334689565
9040000,-63.2857372037472
9048000,-61.8718012653334
9056000,-65.7686936007746
9064000,-64.1213793600655
9072000,-65.1113123988728
9080000,-61.5149521755733
9088000,-59.8666971202756
9096000,-61.7828286930558
9104000,-67.7326280362168
9112000,-65.3551337144312
9120000,-69.5833467401497
9128000,-65.09358833322
9136000,-70.3525700081955
9144000,-68.8505418346747
9152000,-66.0646196304535
9160000,-66.2148489931286
9168000,-64.8453412276198
9176000,-62.5696298325361
9184000,-67.3328996271398
9192000,-67.2003178791247
9200000,-65.157967552929
9208000,-66.488961759905
9216000,-63.8164804120287
9224000,-62.463098165756
9232000,-64.8950033576637
9240000,-64.7546910776165
9248000,-66.4379980819707
9256000,-65.6052733977086
9264000,-64.40718153093
9272000,-62.7849785462971
9280000,-66.3696294008605
9288000,-66.1937894741279
9296000,-64.6724205897184
9304000,-63.661882531216
9312000,-63.8494217172149
9320000,-65.378125429537
9328000,-65.8137594026753
9336000,-64.0544471068318
9344000,-66.4547756791143
9352000,-62.2742029194932
9360000,-60.3405330240716
9368000,-60.5255617281641
9376000,-64.1418377174775
9384000,-67.7256226435066
9392000,-66.2453131613661
9400000,-69.8205527543885
9408000,-66.2353728405563
9416000,-58.9490404720578
9424000,-58.4638183631666
9432000,-58.9497702718102
9440000,-55.9188893286469
9448000,-58.0174985415206
9456000,-58.6894829215073
9464000,-63.6916754998428
9472000,-59.6231489318145
9480000,-58.580834387034
9488000,-56.3771385367587
9496000,-49.4068685871264
9504000,-48.001517946443
9512000,-55.5417167346972
9520000,-62.4968018393417
9528000,-60.8584232692116
9536000,-58.3250105943879
9544000,-63.9310888508053
9552000,-66.0049371906703
9560000,-66.5374377270498
9568000,-61.7831682951733
9576000,-63.6357550819236
9584000,-63.413354170067
9592000,-66.7269293631735
9600000,-66.5200130234127
9608000,-66.6356415488994
9616000,-59.5215277099953
9624000,-59.7517593671531
9632000,-61.5869940142879
9640000,-68.2869852118203
9648000,-61.7944380646159
9656000,-55.6353342342876
9664000,-61.7162931348756
9672000,-60.9551934320573
9680000,-65.1053920003348
9688000,-64.4226339700826
9696000,-62.8598729212982
9704000,-66.4699867672558
9712000,-69.211408572631
9720000,-68.5919762438465
9728000,-62.8429698128876
9736000,-56.9711655662611
9744000,-62.1130832737284
9752000,-54.1142432582945
9760000,-56.8029900589682
9768000,-60.6618648509353
9776000,-54.8028151291561
9784000,-63.4107977875789
9792000,-61.0114498944414
9800000,-57.3408411961835
9808000,-57.7727667177263
9816000,-54.0523589856768
9824000,-56.4446873870708
9832000,-49.726226351402
9840000,-53.187253489283
9848000,-51.9375463354697
9856000,-47.3345761817598
9864000,-52.8506857386223
9872000,-49.0758206557735
9880000,-51.2376504738716
9888000,-57.8218271725274
9896000,-57.5471034322712
9904000,-57.0768035366366
9912000,-50.1783747795634
9920000,-50.9513371266857
9928000,-45.3949239847821
9936000,-40.3490351642537
9944000,-43.644386663421
9952000,-36.1995746080052
9960000,-38.3116956650714
9968000,-37.5615536043186
9976000,-34.0194917563523
9984000,-31.2744118018982
9992000,-22.325099746483
10000000,-16.0900524839557
10008000,-18.4604012404754
10016000,-31.5883981957771
10024000,-41.92012478637
10032000,-34.1173672577396
10040000,-36.7050617054334
10048000,-39.2908194567324
10056000,-35.4868832007941
10064000,-43.3698831669032
10072000,-40.4073583863122
10080000,-42.6181075195028
10088000,-49.7928709597212
10096000,-51.0765249950575
10104000,-54.2474506147303
10112000,-50.1421081908205
10120000,-53.1183891853304
10128000,-48.0911578095916
10136000,-42.3496879877339
10144000,-47.060653985486
10152000,-42.1404409496586
10160000,-45.120363376393
10168000,-47.944622869064
10176000,-44.5782428134298
10184000,-52.8654469266082
10192000,-54.1484643305402
10200000,-55.640818663201
10208000,-53.7600953956131
10216000,-51.2694419976605
10224000,-54.2821130773244
10232000,-45.4620730919169
10240000,-47.345569764001
10248000,-46.9262309848388
10256000,-43.1824546212462
10264000,-50.2166046076123
10272000,-45.7220187362851
10280000,-47.4775297056732
10288000,-53.6670130715377
10296000,-55.0634567493802
10304000,-56.4768285339655
10312000,-50.7108181615961
10320000,-51.6494599977916
10328000,-47.1328829261478
10336000,-42.9318932188328
10344000,-47.225703650187
10352000,-42.0531364665886
10360000,-45.1250423045923
10368000,-46.4256283610226
10376000,-42.8018305236366
10384000,-51.3457256213726
10392000,-52.7486635061079
10400000,-51.3184316625526
10408000,-48.3563423654584
10416000,-44.8538466394808
10424000,-46.3004280477729
10432000,-38.5252774535937
10440000,-40.584354904549
10448000,-38.1693447193802
10456000,-33.5997769585596
10464000,-38.9396246048132
10472000,-32.1059456336798
10480000,-33.4434183194404
10488000,-26.6143532237789
10496000,-18.2847412744837
10504000,-16.1859985959692
10512000,-23.6423942802035
10520000,-38.6761838344093
10528000,-38.6815050556409
10536000,-34.3121172339647
10544000,-42.6160941063191
10552000,-37.9009103581039
10560000,-40.4130745057072
10568000,-45.1455398638323
10576000,-42.3006853906128
10584000,-50.6552710757336
10592000,-52.842430725924
10600000,-53.8684500014744
10608000,-53.8640233336211
10616000,-53.1841117514761
10624000,-57.4353282269078
10632000,-48.294995234037
10640000,-50.1557663906825
10648000,-50.6055108075414
10656000,-47.8650339270845
10664000,-54.4213075937676
10672000,-51.9752876682611
10680000,-53.9860360724969
10688000,-58.9196028298142
10696000,-60.2862080892029
10704000,-62.9094180214806
10712000,-59.7849124853056
10720000,-62.2843310525178
10728000,-64.8121815257315
10736000,-56.83611478381
10744000,-57.4460673603597
10752000,-53.3922160179578
10760000,-58.8668101675025
10768000,-63.1391434194133
10776000,-59.5968623045307
10784000,-65.4042479961631
10792000,-62.2293677046407
10800000,-71.0654601781968
10808000,-65.4403541095582
10816000,-60.2993735688557
10824000,-64.5041527839588
10832000,-59.7382987905594
10840000,-65.2352955957754
10848000,-68.8841280657297
10856000,-60.0133389411387
10864000,-61.5387460773903
10872000,-61.1779140888662
10880000,-66.3604206022488
10888000,-72.5351515175137
10896000,-70.8674988872591
10904000,-71.8199443115611
10912000,-70.2211493588522
10920000,-67.3695523738567
10928000,-64.5538773814341
10936000,-61.6912062065062
10944000,-62.929397839849
10952000,-63.1254614582379
10960000,-64.1228714513936
10968000,-62.8279568045183
10976000,-64.0206434562703
10984000,-61.7660626354208
10992000,-50.1085900076579
11000000,-43.6574339635028
11008000,-46.5159651882094
11016000,-62.2539713824637
11024000,-63.6140288599777
11032000,-56.2445763016795
11040000,-56.5126694573792
11048000,-58.1717328841104
11056000,-56.0737799118532
11064000,-64.2006155048768
11072000,-62.4328733290399
11080000,-60.892443974447
11088000,-65.2997924175102
11096000,-68.9823790473394
11104000,-70.1173567914864
11112000,-65.7426896702858
11120000,-66.3786987567322
11128000,-67.7965730448655
11136000,-61.0267158400636
11144000,-64.7908932977569
11152000,-63.4630934674848
11160000,-65.7516225319134
11168000,-66.1740547194475
11176000,-62.4239916502225
11184000,-65.4536143420515
11192000,-66.5377340991391
11200000,-66.3505877431726
11208000,-66.2331617851325
11216000,-69.8229098151894
11224000,-70.5139835548585
11232000,-64.5692850090572
11240000,-61.3612594279221
11248000,-65.9660840312043
11256000,-69.2989902404045
11264000,-68.0941501670694
11272000,-66.4443781079728
11280000,-70.6058187454275
11288000,-72.8735191371784
11296000,-72.531393275805
11304000,-71.4228761075731
11312000,-69.232973850685
11320000,-70.575092081062
11328000,-66.5860955573422
11336000,-66.9104200193741
11344000,-67.2827158887598
11352000,-69.8450789309849
11360000,-68.9677421516712
11368000,-65.7814072506436
11376000,-68.1564070063486
11384000,-71.0155666246573
11392000,-67.7637640597158
11400000,-63.9313568678341
11408000,-65.0085241836498
11416000,-64.7172991178923
11424000,-63.0447024965816
11432000,-63.2311178480667
11440000,-64.8152927741676
11448000,-65.8323967977784
11456000,-63.2931923213511
11464000,-63.6775539957851
11472000,-63.6870127299127
11480000,-59.7100423808062
11488000,-62.5808879792627
11496000,-60.4298758606245
11504000,-58.8386598238859
11512000,-69.4955151320786
11520000,-65.8059550377167
11528000,-61.6005882362512
11536000,-65.9577236100926
11544000,-68.0925459525689
11552000,-68.0372167701304
11560000,-68.0140926118899
11568000,-66.7268085012095
11576000,-69.143801744338
11584000,-70.1114258514438
11592000,-69.4911445982597
11600000,-68.6429113903408
11608000,-68.8790506197861
11616000,-67.7705688172312
11624000,-69.1820354457135
11632000,-67.3341333500008
11640000,-64.0159691834738
11648000,-67.8138153755872
11656000,-67.5952261791543
11664000,-68.2350529716904
11672000,-71.7221004406405
11680000,-68.8758321625424
11688000,-67.1872142024162
11696000,-70.1839313991382
11704000,-70.8109096070666
11712000,-67.9248525623027
11720000,-62.1192522060274
11728000,-66.5147341722326
11736000,-70.8559577859391
11744000,-68.4784210872265
11752000,-69.4403930455235
11760000,-71.8330205286787
11768000,-70.2034525102788
11776000,-67.373626706083
11784000,-67.9286976044726
11792000,-70.9980277520211
11800000,-68.0654556081165
11808000,-64.4116959025964
11816000,-66.3028652091978
11824000,-67.9633705134162
11832000,-68.3365713422216
11840000,-68.6291703728638
11848000,-72.7506879220786
11856000,-72.399376636361
11864000,-73.4384669041718
11872000,-75.7358056014785
11880000,-66.8672730738575
11888000,-67.9698565500714
11896000,-67.5924333110851
11904000,-70.0433130952908
11912000,-74.0133798906232
11920000,-71.3936161676526
11928000,-72.5050471583153
11936000,-71.0941335855175
11944000,-66.6166019192639
11952000,-68.4300576418991
11960000,-67.2977844545872
11968000,-67.3688233274009
11976000,-64.9678819486586
11984000,-64.3015245472664
11992000,-70.4586191443646
12000000,-63.5426679911789
12008000,-66.9306949227459
12016000,-69.8355654028372
12024000,-68.4492090512965
12032000,-71.7512984771139
12040000,-70.4772847546442
12048000,-70.8473260683834
12056000,-70.1410862219967
12064000,-68.163177271618
12072000,-66.1845845506235
12080000,-72.0138516650487
12088000,-73.6101713359282
12096000,-70.6193141211961
12104000,-67.5037795036645
12112000,-66.5262544102186
12120000,-67.9364867888318
12128000,-67.9974033453857
12136000,-71.3089300149099
12144000,-66.5285919066598
12152000,-67.2639704871668
12160000,-73.5488991697592
12168000,-72.2204355475764
12176000,-71.9578844342729
12184000,-70.6966485635974
12192000,-69.643431472163
12200000,-69.2975655261046
12208000,-72.0134162897329
12216000,-72.2097580654034
12224000,-76.0357193053516
12232000,-72.1424385261061
12240000,-73.7741678346911
12248000,-69.781750308302
12256000,-66.999472535677
12264000,-69.12708749473
12272000,-73.4568080362421
12280000,-68.3619107670684
12288000,-70.4116183880048
12296000,-68.2650021665135
12304000,-72.505803046456
12312000,-68.9111129191169
12320000,-68.8261902848847
12328000,-78.306313087956
12336000,-76.8327726736355
12344000,-73.6142618436872
12352000,-74.7020091901953
12360000,-76.5356246311622
12368000,-76.20383433888
12376000,-68.3455515216442
12384000,-70.0930583771982
12392000,-70.5547365072253
12400000,-76.7742303765282
12408000,-71.8032942763375
12416000,-69.0108244293392
12424000,-74.9203223252701
12432000,-71.5737264040975
12440000,-65.0390953965555
12448000,-63.5361988228191
12456000,-64.4727142057243
12464000,-64.0827686448553
12472000,-65.7511784451457
12480000,-70.6496261905751
12488000,-66.9700748264526
12496000,-64.5763310112422
12504000,-63.2075854567059
12512000,-64.2999913207275
12520000,-66.157236630635
12528000,-69.3974251350304
12536000,-71.7280562155676
12544000,-71.2702930045267
12552000,-69.871003427521
12560000,-69.8081292175688
12568000,-68.523325771408
12576000,-69.9649359436178
12584000,-72.2259718723472
12592000,-69.3208675430769
12600000,-67.70735813107
12608000,-68.8946143195397
12616000,-71.8795699959947
12624000,-73.965412243333
12632000,-77.4036230314327
12640000,-71.933590660659
12648000,-74.4822949456608
12656000,-74.1573048175707
12664000,-70.9125559733346
12672000,-68.6015332803779
12680000,-72.2118391776687
12688000,-73.2882758603449
12696000,-76.8594028585048
12704000,-74.458329178601
12712000,-72.1737401765699
12720000,-70.076213437661
12728000,-69.5339838339404
12736000,-70.3532756794082
12744000,-73.1330459537612
12752000,-74.0486762329448
12760000,-73.1293690446361
12768000,-72.7092979125675
12776000,-76.5733334454
12784000,-70.7546127741052
12792000,-72.0640315863939
12800000,-69.3066899825904
12808000,-68.5426537110209
12816000,-67.98690380699
12824000,-67.5596685217543
12832000,-71.427648676292
12840000,-71.088597973338
12848000,-74.6308258087807
12856000,-73.7495303940123
12864000,-72.9411484732322
12872000,-74.8054290187426
12880000,-72.9051555841373
12888000,-72.3147890643031
12896000,-70.1740986046002
12904000,-70.210292852554
12912000,-70.1230772143272
12920000,-68.4149315311267
12928000,-68.3556936255765
12936000,-72.5255916124636
12944000,-68.1787291765748
12952000,-69.5995732835553
12960000,-70.9575147689407
12968000,-74.3201692855094
12976000,-70.4967427728671
12984000,-73.0013336097247
12992000,-70.2329335550213
13000000,-67.8865649529099
13008000,-70.1000957635071
13016000,-73.387472220807
13024000,-69.6643879280011
13032000,-65.3504413863116
13040000,-65.2231222062376
13048000,-68.9740863942037
13056000,-67.4947370897769
13064000,-67.388950646398
13072000,-66.24291268931
13080000,-69.1695119465111
13088000,-68.8200738589668
13096000,-66.9657306407365
13104000,-66.4151165940735
13112000,-67.6751002766976
13120000,-69.8786226152
13128000,-68.6786690761928
13136000,-72.1954680770608
13144000,-69.4966764937476
13152000,-71.9648988329121
13160000,-73.9839520873432
13168000,-74.7571649256525
13176000,-73.0213126157883
13184000,-72.2079087010385
13192000,-72.9504041841351
13200000,-72.2705284918944
13208000,-70.117154156077
13216000,-73.0016076804221
13224000,-72.5360638254591
13232000,-71.5054933136013
13240000,-75.3866350040376
13248000,-69.3131663186011
13256000,-72.0875765541407
13264000,-75.6954872092796
13272000,-73.137785226838
13280000,-74.3682067692035
13288000,-73.8225416070719
13296000,-74.1117700607288
13304000,-74.1841559863508
13312000,-73.5620089634245
13320000,-77.635423829461
13328000,-72.6112781858861
13336000,-69.1392120942633
13344000,-70.2965766896508
13352000,-70.7794361563035
13360000,-69.172754611736
13368000,-67.8738967730208
13376000,-70.0104303223617
13384000,-69.3809416934308
13392000,-71.8157278997696
13400000,-72.931102185848
13408000,-72.0652975502555
13416000,-73.1289182301237
13424000,-75.2136257996767
13432000,-72.1771082358855
13440000,-70.5541406909787
13448000,-68.3246923061038
13456000,-68.8475656593527
13464000,-73.3255158513563
13472000,-73.9902684530255
13480000,-74.2941102559018
13488000,-74.3887460413721
13496000,-71.2980420105902
13504000,-66.3025414549946
13512000,-68.5357618784427
13520000,-69.2394619259442
13528000,-69.7064612007947
13536000,-65.3812469770974
13544000,-62.4259132388654
13552000,-67.0864728436985
13560000,-72.5513011041697
13568000,-70.1728697721962
13576000,-72.2961327988509
13584000,-73.4409460310732
13592000,-72.52141169738
13600000,-72.3269047215565
13608000,-69.3626479383393
13616000,-69.8749680258651
13624000,-69.628281249852
13632000,-71.9647307890697
13640000,-73.5609654087326
13648000,-75.7668158712095
13656000,-71.1588124248245
13664000,-69.6287066268081
13672000,-70.1987303378078
13680000,-72.672494980146
13688000,-73.017282314526
13696000,-73.1362354167181
13704000,-69.800885845482
13712000,-69.7931490408294
13720000,-71.6097504870161
13728000,-69.6757128548665
13736000,-71.1715033574578
13744000,-72.1429711665412
13752000,-70.8309324702884
13760000,-72.9756867655584
13768000,-72.5391321042218
13776000,-70.2311791518925
13784000,-69.0633880611546
13792000,-72.0205481513938
13800000,-67.7095154970188
13808000,-71.1518082793432
13816000,-74.5083135552131
13824000,-71.7230955406269
13832000,-69.3884801248944
13840000,-66.4871498902873
13848000,-67.7853708925351
13856000,-76.5232107574373
13864000,-75.2600086311795
13872000,-70.5429003175131
13880000,-72.5367382688127
13888000,-71.4311903503857
13896000,-66.4074496848468
13904000,-67.3669628216786
13912000,-67.8189272142538
13920000,-68.4905215889873
13928000,-66.3451750826224
13936000,-68.3513281363217
13944000,-71.9231816241858
13952000,-76.5404053795672
13960000,-72.5940148127575
13968000,-68.8246102194102
13976000,-67.4629345595298
13984000,-68.0703574209324
13992000,-74.1732371054845
14000000,-74.8807479933226
