Trace
Swept SA
A.12.13,N9010A
513 B25 DP2 RTL ,01
Segment,0
Number of Points,1001
Sweep Time,0.044
Start Frequency,6000000
Stop Frequency,14000000
Average Count,0
Average Type,LogPower(Video)
RBW,9100
RBW Filter,Gaussian
RBW Filter BW,3dB
VBW,9100
Sweep Type,Swept
X Axis Scale,Lin
PreAmp State,Off
PreAmp Band,Low
Trigger Source,Ext1
Trigger Level,1
Trigger Slope,Positive
Trigger Delay,0
Phase Noise Optimization,Narrow
Swept If Gain,Low
FFT If Gain,Autorange
RF Coupling,AC
FFT Width,411900
Ext Ref,10000000
Input,RF
RF Calibrator,Off
Attenuation,10
Ref Level Offset,0
External Gain,0
Trace Type,Average
Detector,Sample
Trace Math,Off
Trace Math Oper1,Trace5
Trace Math Oper2,Trace6
Trace Math Offset,0
Trace Name,Trace1
X Axis Units,Hz
Y Axis Units,dBm
DATA
6000000,-72.5495493757036
6008000,-71.5667002316552
6016000,-69.1308380134175
6024000,-70.6977621606981
6032000,-67.1691555367865
6040000,-70.3955330388415
6048000,-66.8923596048151
6056000,-64.1377105086006
6064000,-70.9374574789942
6072000,-68.5451838520934
6080000,-70.6108217501801
6088000,-73.7217332466693
6096000,-74.0666422640152
6104000,-71.5069841232173
6112000,-70.1553456131236
6120000,-71.1470975349631
6128000,-69.3514764751573
6136000,-68.8181190533325
6144000,-73.8478379548338
6152000,-65.5075572310275
6160000,-66.3763994978405
6168000,-69.0922218056364
6176000,-67.3806387590282
6184000,-73.2604075240124
6192000,-71.921387781157
6200000,-74.2377528561843
6208000,-75.0957196191326
6216000,-72.9064084562448
6224000,-70.7188717908301
6232000,-65.5798603083692
6240000,-68.1119889554989
6248000,-69.7447070622955
6256000,-64.8249794027416
6264000,-68.2920533304432
6272000,-67.5425855972266
6280000,-72.267264259104
6288000,-74.450458158667
6296000,-77.3972631845047
6304000,-75.0144593245693
6312000,-71.1809304866105
6320000,-72.6466344511245
6328000,-73.0891643120126
6336000,-66.2122711211841
6344000,-67.8934002333858
6352000,-63.9038764221363
6360000,-68.5598506040997
6368000,-73.7848691406535
6376000,-71.4464380753625
6384000,-73.2149151623441
6392000,-75.8008717164993
6400000,-75.7365762416531
6408000,-71.9517718250813
6416000,-69.6426630360617
6424000,-73.9653435173217
6432000,-66.5262029265097
6440000,-68.7095029172785
6448000,-67.2527708604962
6456000,-64.1769615647631
6464000,-68.2615717268194
6472000,-67.3829881790197
6480000,-74.077438005589
6488000,-74.5745994801309
6496000,-71.6568063585799
6504000,-72.6399710342778
6512000,-71.2002303654437
6520000,-72.3351697207805
6528000,-67.493348089232
6536000,-65.2238716655641
6544000,-70.7480535211558
6552000,-67.5384804942148
6560000,-70.03933031856
6568000,-70.8729345891895
6576000,-67.0309773755632
6584000,-69.2364644866268
6592000,-70.888634732668
6600000,-71.2342106167567
6608000,-72.2512256330505
6616000,-70.9904306584016
6624000,-77.9197338759255
6632000,-69.2518955468234
6640000,-71.1381436830118
6648000,-69.0590814986071
6656000,-64.083657445047
6664000,-68.3513799569545
6672000,-66.8338375874375
6680000,-69.7929071820118
6688000,-73.2528874305958
6696000,-75.4461144630639
6704000,-76.0235310426945
6712000,-71.629202118659
6720000,-74.541884935055
6728000,-72.5533655884493
6736000,-66.7884016127442
6744000,-71.3737845205918
6752000,-66.589364291141
6760000,-67.5569087619521
6768000,-68.5613157566719
6776000,-66.2236920715624
6784000,-72.4157962539542
6792000,-75.0055401525047
6800000,-72.418854463412
6808000,-68.5930980760245
6816000,-71.8899741862818
6824000,-76.3914323066971
6832000,-66.886439204101
6840000,-66.931620114555
6848000,-65.4286648045248
6856000,-62.7963140233298
6864000,-68.2974873837196
6872000,-66.7127871147853
6880000,-68.6174101107652
6888000,-76.4718396050336
6896000,-76.1701874485914
6904000,-76.1020484023203
6912000,-71.58271994141
6920000,-71.6804024072901
6928000,-68.2416313328129
6936000,-68.0285088658466
6944000,-71.6664337362285
6952000,-68.1285841145605
6960000,-72.4006810788322
6968000,-69.9092779438498
6976000,-67.1766888068404
6984000,-71.0422751177807
6992000,-73.7707615567856
7000000,-71.2693696639477
7008000,-74.0378809039043
7016000,-70.7958976908207
7024000,-73.4275595736242
7032000,-65.9736848074192
7040000,-66.8463364194411
7048000,-66.816687001845
7056000,-64.5643036839972
7064000,-74.6390914381353
7072000,-70.8936950955001
7080000,-72.0440296303712
7088000,-78.7551760643714
7096000,-73.9008415728408
7104000,-72.6314188985303
7112000,-70.0109379292479
7120000,-74.3214530816467
7128000,-68.8621139649097
7136000,-64.7877834233515
7144000,-72.5180074458737
7152000,-64.9977547625676
7160000,-66.9280496097274
7168000,-72.0838439381421
7176000,-68.4982857993804
7184000,-70.413215589856
7192000,-71.6812303477104
7200000,-72.5361024335436
7208000,-70.8270167892853
7216000,-69.0185038936845
7224000,-76.1388324096056
7232000,-66.8518083112864
7240000,-67.7275858527918
7248000,-66.6598625581964
7256000,-64.7494542816095
7264000,-71.4804620436721
7272000,-68.1921034564137
7280000,-67.4176155327313
7288000,-71.5032842852627
7296000,-72.4220771295682
7304000,-73.975489036645
7312000,-70.3842528184776
7320000,-74.4118083320849
7328000,-70.1521610595695
7336000,-66.4409898885138
7344000,-70.3544354353374
7352000,-65.2104399798361
7360000,-68.3192653762985
7368000,-70.7017001799497
7376000,-65.8774945255293
7384000,-73.1059654744996
7392000,-75.785862937625
7400000,-72.7712492660737
7408000,-69.4532424147521
7416000,-67.9717326161578
7424000,-70.145612508302
7432000,-64.792040785201
7440000,-67.1653882282762
7448000,-66.9134966767673
7456000,-63.256403596294
7464000,-67.8716697471059
7472000,-65.4789983906648
7480000,-66.9155227813225
7488000,-69.2772146261328
7496000,-70.6276548058305
7504000,-71.5682179198066
7512000,-68.3792685588854
7520000,-72.3182345529817
7528000,-71.1784119695068
7536000,-68.0960470130848
7544000,-75.5601479632454
7552000,-65.7804783854235
7560000,-65.0866614326316
7568000,-68.2587403078141
7576000,-64.5583060591001
7584000,-68.9093892558261
7592000,-72.6585122319316
7600000,-72.6696911757031
7608000,-74.6347632575325
7616000,-74.9676737289502
7624000,-73.1806917060084
7632000,-67.5038881587417
7640000,-66.8050073554639
7648000,-66.1359999258021
7656000,-64.8668445532045
7664000,-71.6720669356068
7672000,-65.3516545059264
7680000,-67.9665010343062
7688000,-73.8343185267643
7696000,-75.272743932146
7704000,-71.3989698210714
7712000,-70.3201446125347
7720000,-71.7779067308233
7728000,-68.5392162468748
7736000,-64.6335589215813
7744000,-67.9334664874357
7752000,-63.2506038937165
7760000,-65.8614760389478
7768000,-69.1790970583808
7776000,-67.9589355758191
7784000,-76.8352784712853
7792000,-77.6060062073567
7800000,-74.3063981525314
7808000,-71.5695690708273
7816000,-68.6688158320099
7824000,-71.7991151594464
7832000,-64.7039541112652
7840000,-65.4698643917505
7848000,-67.1444972243352
7856000,-64.3386055926443
7864000,-71.7212567392032
7872000,-67.5289739688294
7880000,-66.5506803084315
7888000,-70.7204459940709
7896000,-71.4781494200059
7904000,-69.2627572487105
7912000,-66.3199514329791
7920000,-67.7955964095956
7928000,-65.6199397259641
7936000,-62.3411022978964
7944000,-68.4636421559572
7952000,-63.4947334405278
7960000,-65.7931300964946
7968000,-68.0803306994993
7976000,-66.1085955865705
7984000,-72.9657212917354
7992000,-74.7354818399428
8000000,-78.6877336651702
8008000,-75.5685197657319
8016000,-68.9134022418362
8024000,-70.912641509316
8032000,-63.5770141589132
8040000,-64.3117166259037
8048000,-67.9709379652609
8056000,-64.7049950536516
8064000,-70.001699540835
8072000,-65.9006583637549
8080000,-67.4936789052761
8088000,-72.0299581255621
8096000,-73.5508919801585
8104000,-77.4321831747928
8112000,-69.6072133238313
8120000,-70.6434328514763
8128000,-68.646089907366
8136000,-64.3031394605409
8144000,-67.2426121824237
8152000,-62.1387196977835
8160000,-64.6072605347411
8168000,-66.5404461105854
8176000,-64.8844738209829
8184000,-69.2535061494809
8192000,-72.5131473921568
8200000,-72.6405406193986
8208000,-74.7532230103963
8216000,-74.2874829396581
8224000,-75.8334727391079
8232000,-64.8721005251532
8240000,-66.2924307236409
8248000,-65.6858400370062
8256000,-62.3980178041424
8264000,-69.4363223583606
8272000,-64.2133167581587
8280000,-66.2708558957933
8288000,-71.9304843783997
8296000,-72.3914963289343
8304000,-77.3312523403456
8312000,-71.511983226952
8320000,-75.2890219028865
8328000,-68.8015871343425
8336000,-62.1807361028569
8344000,-65.9115124854645
8352000,-61.4614984359043
8360000,-62.875629189587
8368000,-66.535508631205
8376000,-63.3091550630237
8384000,-66.8297239550245
8392000,-71.7611592687881
8400000,-75.3620919891576
8408000,-75.0723148192627
8416000,-75.9730170706736
8424000,-76.2946683135066
8432000,-63.7372204334269
8440000,-64.1809351095172
8448000,-65.4910950015219
8456000,-61.2345986305834
8464000,-68.0099179377422
8472000,-64.8148276395694
8480000,-66.5814642306999
8488000,-71.9686057023049
8496000,-69.5664113708032
8504000,-66.0823879002891
8512000,-69.8901196334613
8520000,-67.6801244850282
8528000,-64.3570243680258
8536000,-61.3393226548758
8544000,-69.5714758696263
8552000,-63.1105123792834
8560000,-65.46290238481
8568000,-66.7042499644243
8576000,-62.8384425175444
8584000,-68.1823847818723
8592000,-70.0714719657073
8600000,-71.0254963991318
8608000,-69.7455144251252
8616000,-67.041333387562
8624000,-71.8299493551584
8632000,-64.4133795113637
8640000,-66.4722751471902
8648000,-64.0566635565865
8656000,-60.4444869435071
8664000,-67.2704607173766
8672000,-62.6601182297305
8680000,-65.2099337053159
8688000,-73.3275481023129
8696000,-75.192273037502
8704000,-70.6121869946586
8712000,-67.5794467190086
8720000,-70.2634527885554
8728000,-66.4195321826197
8736000,-61.1192435673639
8744000,-65.6888223264587
8752000,-60.4097260478683
8760000,-62.8322719207813
8768000,-65.7193211701082
8776000,-63.2066290177495
8784000,-73.3125077291363
8792000,-71.6176985079048
8800000,-72.1276133393707
8808000,-68.8596627737489
8816000,-66.40516360838
8824000,-69.1919175315396
8832000,-60.4121946191819
8840000,-62.8469068914623
8848000,-63.5830824881659
8856000,-59.642703066435
8864000,-68.5187303119382
8872000,-64.1664360109439
8880000,-64.0702063196988
8888000,-69.9628117243181
8896000,-72.1485354829174
8904000,-72.7975127984494
8912000,-67.534936588714
8920000,-69.8847333534878
8928000,-65.0590723163584
8936000,-60.2393207763803
8944000,-66.1536314471551
8952000,-60.1472168370837
8960000,-63.3336311676048
8968000,-66.7706445413989
8976000,-62.4918431870118
8984000,-69.8671557350034
8992000,-69.1202459133155
9000000,-63.8169752946686
9008000,-64.4147565505223
9016000,-64.3590183515093
9024000,-67.3660162249814
9032000,-59.7144521569478
9040000,-61.7325567788576
9048000,-62.2594814020755
9056000,-58.351699646531
9064000,-64.0587311960197
9072000,-61.6125786290815
9080000,-65.3141893797391
9088000,-71.4828456070705
9096000,-72.5303470886143
9104000,-69.5419583234892
9112000,-64.5092678013852
9120000,-68.077668144367
9128000,-62.9961084666592
9136000,-58.4291611928998
9144000,-62.0247281561331
9152000,-57.2202305032563
9160000,-60.6268061252489
9168000,-62.7873300432054
9176000,-60.1162874271749
9184000,-67.2292072770487
9192000,-69.2965161224363
9200000,-73.7900397848168
9208000,-70.3107523944797
9216000,-66.5623113477214
9224000,-67.7606043082537
9232000,-58.2357412040154
9240000,-59.7398005054203
9248000,-60.008125140351
9256000,-56.498333814539
9264000,-63.1494505143175
9272000,-59.7637175221461
9280000,-62.8092815320325
9288000,-69.577867417112
9296000,-69.7753412995157
9304000,-69.1058258224297
9312000,-64.356559854679
9320000,-66.5172413543115
9328000,-61.2858728556689
9336000,-56.6009972463676
9344000,-60.9285310239686
9352000,-55.4534786156362
9360000,-58.5180941872646
9368000,-61.0628323163936
9376000,-57.1126703648864
9384000,-64.7095112184814
9392000,-68.0174716133537
9400000,-65.7913832665229
9408000,-63.359272120734
9416000,-61.5171704074795
9424000,-64.5436072895719
9432000,-54.7812545925022
9440000,-56.9098759971668
9448000,-56.3656747389304
9456000,-52.8228099210843
9464000,-58.6184527453254
9472000,-53.3648301271297
9480000,-55.5116727211941
9488000,-52.6954091336797
9496000,-44.7076145692551
9504000,-42.2066028820843
9512000,-51.0562026768455
9520000,-67.8828204514555
9528000,-63.3209366511031
9536000,-59.2910291205698
9544000,-65.43733595483
9552000,-56.3928944789393
9560000,-59.513704580443
9568000,-60.5092157271522
9576000,-56.2347385218388
9584000,-62.4901345975198
9592000,-62.5337445364873
9600000,-65.8070260357293
9608000,-65.4712474740553
9616000,-61.3525369000439
9624000,-63.5125458335563
9632000,-54.809782808106
9640000,-56.8026182142995
9648000,-56.2827676797288
9656000,-51.6814078394586
9664000,-57.4055178250364
9672000,-53.6100959476361
9680000,-56.114108007112
9688000,-63.3937640541371
9696000,-62.0660953701251
9704000,-63.5410568464128
9712000,-57.5991179413993
9720000,-58.9031049017316
9728000,-54.8427636349688
9736000,-50.4808920474004
9744000,-56.0586682369156
9752000,-49.635838179683
9760000,-51.5066515209395
9768000,-53.6979039718557
9776000,-50.2958595766027
9784000,-58.8114267754683
9792000,-62.1507503841733
9800000,-62.6602561446445
9808000,-57.7960390587031
9816000,-52.9538054895636
9824000,-55.3902626038943
9832000,-47.2741460527194
9840000,-49.2535269027206
9848000,-48.8275393300991
9856000,-44.5780588401945
9864000,-51.0760832357065
9872000,-47.2985872306838
9880000,-49.8614470999346
9888000,-58.6591709501708
9896000,-59.8236581969495
9904000,-56.2614786463086
9912000,-47.8011451954317
9920000,-49.4519014057602
9928000,-44.2556957819101
9936000,-39.4327280989678
9944000,-43.2350751861063
9952000,-36.1187236659609
9960000,-38.4576780413563
9968000,-37.3002020346466
9976000,-33.7395249613082
9984000,-31.6848180679002
9992000,-22.8472209544498
10000000,-16.618182652895
10008000,-18.9273009092198
10016000,-31.5557056144023
10024000,-42.3263203449107
10032000,-35.0166279241359
10040000,-37.5596704315143
10048000,-40.5978745774836
10056000,-37.1885980216342
10064000,-44.7483971075969
10072000,-42.3011513038931
10080000,-45.5436338325193
10088000,-52.9699480394711
10096000,-52.6853566201629
10104000,-56.1148040759195
10112000,-52.2276617251203
10120000,-54.6591153501219
10128000,-50.5189633496364
10136000,-45.6732196152901
10144000,-51.4458146042775
10152000,-45.7677064612967
10160000,-48.163214208244
10168000,-51.2437547693491
10176000,-48.0214251561815
10184000,-57.7641396291791
10192000,-58.6195128023207
10200000,-57.3342226529027
10208000,-57.1924152200092
10216000,-52.7002071452775
10224000,-56.1728339485014
10232000,-48.9917048110282
10240000,-50.6773370086838
10248000,-50.9999181109646
10256000,-46.7262995091857
10264000,-53.2117958059407
10272000,-49.7898309757629
10280000,-52.5007788759577
10288000,-62.813482528721
10296000,-59.6415947594836
10304000,-60.0291393882665
10312000,-53.6399424926526
10320000,-55.1180079350265
10328000,-51.5495508245007
10336000,-46.0191758491284
10344000,-50.9439487026546
10352000,-45.353932273539
10360000,-48.1067719966682
10368000,-50.6103074490401
10376000,-46.7544704518943
10384000,-54.3433250291473
10392000,-57.9178481494432
10400000,-56.3107890229481
10408000,-51.1847606376579
10416000,-47.1965600260024
10424000,-49.7152755402883
10432000,-40.7636665191084
10440000,-42.4346154685611
10448000,-40.0153126980642
10456000,-35.7755234999033
10464000,-40.900398859525
10472000,-33.62911629553
10480000,-35.2192912282579
10488000,-27.4970031493991
10496000,-19.1364297503742
10504000,-16.9537471137345
10512000,-23.8868641490383
10520000,-38.751025567579
10528000,-39.3443804576866
10536000,-34.5698890583334
10544000,-42.3167971401016
10552000,-37.7724657428452
10560000,-40.5464629069647
10568000,-44.2640512005278
10576000,-41.8358854017322
10584000,-50.2953037036981
10592000,-52.0775091898961
10600000,-55.7281903751203
10608000,-55.4743478819662
10616000,-53.0468752450103
10624000,-56.3312071238307
10632000,-47.4528093762455
10640000,-49.6861250998692
10648000,-49.6875499118687
10656000,-45.7676256663806
10664000,-52.8115366006126
10672000,-48.9821032795531
10680000,-51.6330963214159
10688000,-59.6277203873673
10696000,-58.2582131577766
10704000,-62.1367489022662
10712000,-57.5547537685435
10720000,-58.7591287330327
10728000,-55.2812853796441
10736000,-50.5350467200007
10744000,-56.4184256170155
10752000,-50.6052951049678
10760000,-52.9908082955991
10768000,-55.6046647960474
10776000,-52.5155874204711
10784000,-60.23881961362
10792000,-62.6119657077404
10800000,-61.8912355597168
10808000,-61.0270117533716
10816000,-59.4599345577997
10824000,-63.6990495130052
10832000,-54.5769132253437
10840000,-56.0857030002098
10848000,-56.1581234602261
10856000,-52.5418968270724
10864000,-59.7430634844825
10872000,-56.4790576480121
10880000,-58.9016357515129
10888000,-66.1973267767021
10896000,-64.8788666405927
10904000,-65.7220076825018
10912000,-61.593007474389
10920000,-65.6272166725404
10928000,-61.2251051150262
10936000,-56.6550261903986
10944000,-61.3156547131097
10952000,-55.4743408021913
10960000,-57.9197978963728
10968000,-58.3048416112531
10976000,-56.837070839027
10984000,-56.2175457675279
10992000,-48.9578639464046
11000000,-41.8966718584004
11008000,-44.4118495514932
11016000,-60.6265079067093
11024000,-66.2923087156618
11032000,-55.6551981737949
11040000,-57.4517431252545
11048000,-57.4789983344625
11056000,-54.1820667086719
11064000,-60.9543862658841
11072000,-57.5380682751823
11080000,-60.0171458533163
11088000,-66.6898618228796
11096000,-66.0511216664481
11104000,-69.1156155459133
11112000,-65.328043864184
11120000,-66.713934286808
11128000,-61.8249463076171
11136000,-57.7939342679252
11144000,-61.4603125727276
11152000,-56.8856048677907
11160000,-59.9713699697203
11168000,-62.9363064464606
11176000,-60.1709923413065
11184000,-70.1245504943104
11192000,-69.1563065290877
11200000,-69.6278278217837
11208000,-68.9270063021525
11216000,-67.3404410336844
11224000,-74.0890074366502
11232000,-60.487378120176
11240000,-62.22615833735
11248000,-63.061724714984
11256000,-59.0584773981502
11264000,-65.3391745243801
11272000,-60.973116806761
11280000,-64.4907021494454
11288000,-73.177611332097
11296000,-74.1416635239969
11304000,-74.8386717011379
11312000,-68.01010016372
11320000,-70.1993304907402
11328000,-64.709140345114
11336000,-60.3501660824149
11344000,-65.825735866158
11352000,-60.5421365544779
11360000,-62.7918687492029
11368000,-64.7228270145371
11376000,-62.7275400469956
11384000,-69.5825254165961
11392000,-69.0982876151756
11400000,-69.8530198106898
11408000,-71.8090280463647
11416000,-72.6532056507674
11424000,-70.7314938667307
11432000,-62.1710224283326
11440000,-64.2731206853384
11448000,-64.7174344122883
11456000,-60.2887565482564
11464000,-66.2000882500249
11472000,-62.6459511232407
11480000,-64.9706857375811
11488000,-71.3136993576066
11496000,-74.3428774648166
11504000,-73.9906621819804
11512000,-67.6696779783438
11520000,-71.9232051908327
11528000,-69.0846991850511
11536000,-64.2618170882689
11544000,-69.1635889996833
11552000,-63.3102280213953
11560000,-64.100264333285
11568000,-65.3818671878062
11576000,-64.4019282334188
11584000,-71.1294421600101
11592000,-70.5737266603586
11600000,-72.5744672658623
11608000,-71.2090194657326
11616000,-69.5868152390676
11624000,-72.2207748792287
11632000,-64.8087116237898
11640000,-66.5353533509192
11648000,-65.5421013930263
11656000,-62.4696959584519
11664000,-70.1948421127088
11672000,-66.1441278905008
11680000,-70.6344535844447
11688000,-76.8087466215447
11696000,-73.4290284873239
11704000,-77.077009049592
11712000,-71.6151524387793
11720000,-71.2494822026179
11728000,-70.1687094390569
11736000,-64.2460101362651
11744000,-69.4030137859893
11752000,-63.5929322487039
11760000,-65.4714931165616
11768000,-68.0984348637132
11776000,-65.8565524032062
11784000,-72.31299745134
11792000,-72.0036122203307
11800000,-70.703195795213
11808000,-69.7727853651888
11816000,-68.8146854512665
11824000,-73.7342714410628
11832000,-66.0105958858183
11840000,-68.1441365046428
11848000,-66.5016359511867
11856000,-62.9668059876721
11864000,-70.2270758439736
11872000,-68.846700547475
11880000,-70.4301988346529
11888000,-74.9669573889236
11896000,-77.6158943382358
11904000,-77.6253032399276
11912000,-72.501514777306
11920000,-72.8759208168433
11928000,-70.6524950323792
11936000,-66.5923057524269
11944000,-73.3945565464153
11952000,-64.715605295065
11960000,-66.7325913725219
11968000,-68.7842121789424
11976000,-67.4833187701729
11984000,-76.9311463007113
11992000,-72.214863219781
12000000,-70.786844552353
12008000,-75.6929650258682
12016000,-72.8986750624909
12024000,-72.8535427820802
12032000,-67.8121538580794
12040000,-71.3306573269114
12048000,-69.8803518017864
12056000,-65.7050784652833
12064000,-70.9122270302038
12072000,-67.1630721508744
12080000,-68.0833900674967
12088000,-71.2157516379488
12096000,-75.7727988118952
12104000,-73.7256264606033
12112000,-72.7681510501214
12120000,-70.4115962232039
12128000,-68.664835224088
12136000,-65.6492968711527
12144000,-72.8376376109905
12152000,-65.7032855211275
12160000,-67.1197404142961
12168000,-68.7257633920924
12176000,-68.5090850719083
12184000,-74.5818711072198
12192000,-77.1532300417689
12200000,-76.3998125195843
12208000,-75.0979975393298
12216000,-71.4861884618867
12224000,-72.0056044567047
12232000,-67.7786965656149
12240000,-71.3335736071474
12248000,-70.3696137769365
12256000,-67.0740686435728
12264000,-73.5872225196721
12272000,-67.4287928361747
12280000,-68.547184300553
12288000,-74.5479339519151
12296000,-76.4151616270908
12304000,-81.2104041440093
12312000,-73.2423002912927
12320000,-77.3309728261915
12328000,-73.0616483897273
12336000,-69.3584484770165
12344000,-71.6704929755222
12352000,-66.0517850842047
12360000,-69.0707456879903
12368000,-71.5321104739645
12376000,-68.7772115151939
12384000,-72.5507156693454
12392000,-75.2732943736748
12400000,-74.2684359295823
12408000,-71.1980338633753
12416000,-71.9891964938332
12424000,-71.1673740482461
12432000,-67.0775292364893
12440000,-74.6171594531539
12448000,-69.8336023659776
12456000,-65.7543784681869
12464000,-70.4239729170921
12472000,-67.5943481394046
12480000,-71.8298441117555
12488000,-71.9718514964398
12496000,-72.9925623098622
12504000,-72.6723145287213
12512000,-74.1696021195154
12520000,-72.6803798827874
12528000,-72.6102823159534
12536000,-68.2076282938081
12544000,-70.1519687058373
12552000,-67.108939161058
12560000,-70.0734025808851
12568000,-71.3045909436922
12576000,-69.7408837641024
12584000,-74.0841333081725
12592000,-74.6968562807613
12600000,-77.9224449187096
12608000,-73.2524901404914
12616000,-74.8211026815274
12624000,-72.6893416896981
12632000,-68.9213346412726
12640000,-70.663716830227
12648000,-71.2245024856325
12656000,-67.3334050019099
12664000,-69.4855852594372
12672000,-68.3772160619091
12680000,-70.2905834214844
12688000,-73.9077068655542
12696000,-73.9026463936398
12704000,-73.6531380160523
12712000,-70.3906105810405
12720000,-71.2264995192663
12728000,-74.5041372523257
12736000,-71.5846380812766
12744000,-73.2474342396537
12752000,-70.5928648632061
12760000,-72.270938459518
12768000,-71.9428911094883
12776000,-68.5345402729194
12784000,-75.6801327085386
12792000,-78.8760754619262
12800000,-74.933736678326
12808000,-71.4466335585037
12816000,-73.8045345173019
12824000,-75.3168043886791
12832000,-71.3694871969852
12840000,-72.8740593845001
12848000,-72.0210416704224
12856000,-72.2838139618897
12864000,-77.9708001855405
12872000,-73.4881263273642
12880000,-75.0718170350236
12888000,-78.5824643141583
12896000,-78.9376842268627
12904000,-77.9579520296933
12912000,-76.6650145846524
12920000,-76.551419780013
12928000,-74.01506675102
12936000,-72.1328780337391
12944000,-75.3846757873816
12952000,-69.25594435942
12960000,-69.0796397603978
12968000,-71.6592065121692
12976000,-70.4315867350324
12984000,-72.4285352831696
12992000,-75.176753052741
13000000,-76.5597207409788
13008000,-76.1025976527815
13016000,-73.0400113552769
13024000,-72.2983344092243
13032000,-70.1475224478554
13040000,-71.6071298520595
13048000,-73.723221602184
13056000,-72.4023425120962
13064000,-75.4359990831038
13072000,-71.4573067107544
13080000,-76.7373781161405
13088000,-73.7192821014117
13096000,-71.7715315377716
13104000,-74.2857176249032
13112000,-80.6777534875668
13120000,-78.8683995756823
13128000,-75.1439616161898
13136000,-69.8832117977886
13144000,-74.690756820974
13152000,-70.5416449730853
13160000,-73.3261739649745
13168000,-77.4985811282562
13176000,-71.8639876801706
13184000,-71.0269839126986
13192000,-71.0318337088355
13200000,-74.7540625522818
13208000,-73.6079381135881
13216000,-72.4106513087793
13224000,-77.5242120097347
13232000,-72.469604325388
13240000,-74.8087282179149
13248000,-78.3538231962734
13256000,-71.9016728570009
13264000,-72.7155136593005
13272000,-72.083193469786
13280000,-74.2730895780592
13288000,-74.9332420937992
13296000,-77.9606784239529
13304000,-72.6671808654676
13312000,-72.9420461341829
13320000,-76.7403844853179
13328000,-72.3088316377511
13336000,-68.6735433585855
13344000,-75.1128028105492
13352000,-71.9211488136247
13360000,-76.4803466833037
13368000,-76.4462583933651
13376000,-71.749180235601
13384000,-72.1666112416523
13392000,-70.7620161830919
13400000,-75.0723941897998
13408000,-75.7238959932395
13416000,-75.1309755526928
13424000,-71.4417755020168
13432000,-70.0893066930986
13440000,-74.1742448120748
13448000,-71.3425589912946
13456000,-67.9849911762341
13464000,-72.5823436425871
13472000,-73.5097140813145
13480000,-72.6169485548341
13488000,-77.9306632900231
13496000,-78.9795471730781
13504000,-75.9906296624403
13512000,-76.8139283574587
13520000,-77.9512478494569
13528000,-75.1526448053008
13536000,-72.2871033436419
13544000,-73.0774336689997
13552000,-69.1715840275555
13560000,-72.6615022197193
13568000,-72.0655919187048
13576000,-71.9978596476374
13584000,-76.4101685932554
13592000,-76.4526024159528
13600000,-77.127171060453
13608000,-78.5285149977104
13616000,-78.7616521890978
13624000,-77.1192740342502
13632000,-74.6393613150065
13640000,-76.3156955375322
13648000,-70.9844437725064
13656000,-69.2664754013561
13664000,-74.0014648620355
13672000,-73.7787665952632
13680000,-75.03009135069
13688000,-72.9240797429054
13696000,-76.3734968457282
13704000,-74.724517520262
13712000,-77.9707732353571
13720000,-78.5269604327129
13728000,-78.593949804513
13736000,-75.0399842612065
13744000,-75.1871137092345
13752000,-71.6360294592046
13760000,-73.4798135625102
13768000,-76.0485176067274
13776000,-74.1642534369157
13784000,-77.1827449144338
13792000,-76.7703753907306
13800000,-75.265538588553
13808000,-76.3630240950038
13816000,-78.941410011651
13824000,-76.7326243793592
13832000,-72.5685541493501
13840000,-72.3071806105449
13848000,-71.1948223349469
13856000,-70.3283954522684
13864000,-72.9574273723015
13872000,-70.7262851363618
13880000,-75.3345115792479
13888000,-74.2675849394631
13896000,-77.0876675474048
13904000,-77.7644020278265
13912000,-77.0984815298965
13920000,-74.9338144029079
13928000,-75.4968414380005
13936000,-76.528611898246
13944000,-73.9280618830601
13952000,-71.7750472588349
13960000,-73.7831269603053
13968000,-76.0569445010912
13976000,-77.647218109851
13984000,-78.7553977954639
13992000,-78.0952916623797
14000000,-77.2010512145861
